TimeStamp,Delta_TP9,Delta_AF7,Delta_AF8,Delta_TP10,Theta_TP9,Theta_AF7,Theta_AF8,Theta_TP10,Alpha_TP9,Alpha_AF7,Alpha_AF8,Alpha_TP10,Beta_TP9,Beta_AF7,Beta_AF8,Beta_TP10,Gamma_TP9,Gamma_AF7,Gamma_AF8,Gamma_TP10,RAW_TP9,RAW_AF7,RAW_AF8,RAW_TP10,AUX_RIGHT,Accelerometer_X,Accelerometer_Y,Accelerometer_Z,Gyro_X,Gyro_Y,Gyro_Z,HeadBandOn,HSI_TP9,HSI_AF7,HSI_AF8,HSI_TP10,Battery,Elements
2024-10-15 09:31:45.478,,,,,,,,,,,,,,,,,,,,,,,,,,,,,,,,,,,,,,/muse/event/connected Muse-19E7
2024-10-15 09:31:45.546,,,,,,,,,,,,,,,,,,,,,,,,,,,,,,,,,,,,,,/muse/elements/blink
2024-10-15 09:31:45.593,,,,,,,,,,,,,,,,,,,,,,,,,,,,,,,,,,,,,,/muse/elements/blink
2024-10-15 09:31:46.479,0.1720413478433994,0.9146299344224096,0.7947819449154648,0.6907233116040848,0.6192134800423932,0.6073439323398112,0.3939425556885759,0.2836275731820099,0.6714359175360708,0.424303925292928,0.4730003863799126,0.04612374472843944,0.756655892891842,-0.1381853554150028,-0.1698100013318751,0.6380088406104805,0.3633630034559957,-0.5065284361962261,-0.3806661362005888,0.4625256648751481,652.7472527472528,794.981684981685,784.5054945054945,749.8534798534798,639.8534798534798,-0.146362,0.100037,1.003357,4.882355,-6.691742,-3.723450,1,1,1,1,1,35.000000
2024-10-15 09:31:47.485,1.08411008575644,0.5467189720585428,0.6958240507966094,0.86482597150896,0.9683073909139625,0.3489318592017858,0.611327810042951,0.5397044033728251,0.3966808005761073,0.3858509159148197,0.629741856546306,0.7148978692180926,0.4377116054778671,0.08635973449674923,-0.0617054076113629,0.4483396248151605,0.2609173192616814,-0.4312396437178173,-0.3540739350009325,0.5955079246006875,793.7728937728938,801.025641025641,793.3699633699634,796.5934065934066,748.6446886446887,-0.143616,0.101440,1.000122,5.211334,-6.482391,-3.917847,1,1,1,1,1,35.000000
2024-10-15 09:31:48.126,,,,,,,,,,,,,,,,,,,,,,,,,,,,,,,,,,,,,,/muse/elements/blink
2024-10-15 09:31:48.478,0.9598311977596283,0.5590700955720985,0.6833657180786822,0.8365735120304836,0.8888838137702688,0.3012393753218152,0.5419940855098879,0.5373295378384044,0.5266024103550803,0.4970210373577109,0.5359802904427863,0.7492946023735823,0.3913142097122667,0.005729263287011716,-0.01265682167784332,0.4413441160609893,0.3521688239786603,-0.5153467962474578,-0.2957141545581905,0.5567068445521168,621.7216117216118,808.2783882783883,785.3113553113553,742.6007326007326,615.6776556776557,-0.142761,0.099915,1.004700,4.568329,-6.542206,-4.994507,1,1,1,1,1,35.000000
2024-10-15 09:31:49.393,,,,,,,,,,,,,,,,,,,,,,,,,,,,,,,,,,,,,,/muse/elements/blink
2024-10-15 09:31:49.479,0.4512725343544726,0.672231541269084,0.9230054753399586,0.5872686612271651,0.6107052292051048,0.3762748509456551,0.5023900550736307,0.4521767068567042,0.4477333202516484,0.6250167943962734,0.4610599906754162,0.691920070726099,0.3218402377385731,-0.1002595494659283,-0.1051692331578335,0.3931921008935166,0.4439340896122507,-0.4388189507520437,-0.4221890122040847,0.3805867399032154,908.6080586080586,801.4285714285714,789.3406593406594,814.7252747252747,817.948717948718,-0.146057,0.095642,0.999634,4.381409,-6.213226,-4.830017,1,1,1,1,1,35.000000
2024-10-15 09:31:49.993,,,,,,,,,,,,,,,,,,,,,,,,,,,,,,,,,,,,,,/muse/elements/blink
2024-10-15 09:31:50.479,0.4512725343544726,0.799804380074269,0.901668079430476,0.5872686612271651,0.6107052292051048,0.6334434832963561,0.4268617287486039,0.4521767068567042,0.4477333202516484,0.4948635549517196,0.469582877230576,0.691920070726099,0.3218402377385731,-0.03051173028357393,-0.1489494205555594,0.3931921008935166,0.4439340896122507,-0.4487349308615557,-0.273884611432881,0.3805867399032154,979.92673992674,795.7875457875458,800.6227106227107,850.5860805860806,1165.274725274725,-0.138977,0.098877,1.004639,5.301056,-6.542206,-3.992615,1,1,1,1,1,35.000000
2024-10-15 09:31:51.277,,,,,,,,,,,,,,,,,,,,,,,,,,,,,,,,,,,,,,/muse/elements/blink
2024-10-15 09:31:51.478,0.4512725343544726,0.7049260172694797,0.7996948790157518,0.5872686612271651,0.6107052292051048,0.4492900372673549,0.3184650432729652,0.4521767068567042,0.4477333202516484,0.211642386332062,0.2305561916174448,0.691920070726099,0.3218402377385731,-0.09294210103021149,-0.1575257531620657,0.3931921008935166,0.4439340896122507,-0.5010480515185062,-0.3397921946955494,0.3805867399032154,903.7728937728938,790.952380952381,794.981684981685,821.978021978022,917.8754578754579,-0.137207,0.101196,1.005493,4.725342,-7.088013,-5.218811,1,2,1,1,2,35.000000
2024-10-15 09:31:52.478,0.4512725343544726,0.4557661685215524,0.3626659036238138,0.5872686612271651,0.6107052292051048,0.03107082624848258,0.2279422760451076,0.4521767068567042,0.4477333202516484,-0.08556368348875192,0.1874160034941467,0.691920070726099,0.3218402377385731,-0.08769663296004833,-0.04728096459582341,0.3931921008935166,0.4439340896122507,-0.2125750959349287,-0.2286704950322374,0.3805867399032154,986.7765567765568,796.1904761904763,800.2197802197802,853.4065934065934,1231.355311355311,-0.141785,0.095093,1.002319,4.493561,-6.661835,-4.366455,1,2,1,1,2,35.000000
2024-10-15 09:31:53.478,0.3139416032171206,0.3190336560113345,0.3854810429900339,0.2830451065422807,0.298304621357497,-0.2070922495210921,-0.1917143923542335,-0.05021715916929652,0.5911740381723869,-0.0088951133576625,0.1865732241408899,0.613905946387357,0.4418228134593412,-0.07777086614949506,-0.01233983379617226,0.7077380099501818,0.1350019159241682,-0.2523023592728392,-0.114841804370917,0.3151963764785241,994.4322344322345,792.5641025641025,797.8021978021978,892.0879120879121,1181.794871794872,-0.131836,0.096802,1.002441,4.747772,-7.708588,-4.254303,1,1,1,1,1,35.000000
2024-10-15 09:31:54.055,,,,,,,,,,,,,,,,,,,,,,,,,,,,,,,,,,,,,,/muse/elements/blink
2024-10-15 09:31:54.486,0.2766691631573051,0.3769321534605251,0.3396573117832409,-0.01825265776049347,0.2598300344960784,-0.0009551849250347455,-0.2080082668214465,-0.287684732232966,0.5771570731238818,0.2312487827526676,0.3000949616584938,0.5721438594657279,0.459040721748683,-0.2010311198445146,0.05051803409665954,0.7222765471755905,0.1398519470891627,-0.2515968748015501,-0.2465279845217458,0.1238692255425586,977.5091575091575,790.5494505494506,791.3553113553114,832.4542124542124,709.9633699633699,-0.143738,0.096619,0.997437,4.785156,-8.037567,-4.044952,1,1,1,1,1,35.000000
2024-10-15 09:31:55.478,0.2895094351798163,0.2575799284748576,0.4368343075332309,-0.2002563921820815,0.4658919829072573,0.2240666680052732,0.04103215776271478,0.1117177091385554,0.09862251887988749,0.2864508049341837,0.3450529041855112,0.5503779626717158,0.3688936743611405,-0.07491893237801461,-0.03658297992766007,0.3356701908842338,0.3013485876440478,-0.3208840883519922,-0.4323377157240132,0.02270371559092913,967.8388278388279,794.5787545787546,792.5641025641025,840.1098901098901,1243.040293040293,-0.133667,0.098816,1.000488,4.478607,-8.321686,-5.345917,1,1,1,1,1,35.000000
2024-10-15 09:31:56.153,,,,,,,,,,,,,,,,,,,,,,,,,,,,,,,,,,,,,,/muse/elements/blink
2024-10-15 09:31:56.486,0.2830207748641582,-0.5294211865162038,0.4054579964525373,-0.04479133999462547,0.4093173854538066,-0.3922242176199001,0.1076089107795844,0.213929856930226,0.5466050597949066,0.07205401172663525,0.2698753416719759,0.5677063166742526,0.4024687347299397,-0.0004744158039035766,-0.1771851926770487,0.2288136208427576,0.1746564844489918,-0.3683962460084556,-0.278656944574068,0.1596562890346093,985.5677655677656,799.0109890109891,812.3076923076924,856.2271062271062,929.5604395604396,-0.146484,0.093445,0.991760,4.695435,-5.749664,-5.091705,1,1,1,1,1,35.000000
2024-10-15 09:31:56.602,,,,,,,,,,,,,,,,,,,,,,,,,,,,,,,,,,,,,,/muse/elements/blink
2024-10-15 09:31:57.478,0.8374888024506527,-0.5001517365899337,0.5897367412346808,0.06945491367366434,0.4783235775408042,-0.2684613522561711,0.1316087511638698,0.2966102355205318,0.5466050597949066,-0.01943215480852836,0.09070121566506444,0.3261821624398459,0.5348114021014019,0.01446007655371923,-0.06759653188338804,0.08677367406083591,0.1648247837445178,-0.2898187307226562,-0.2915455454994604,0.2636182510451899,840.1098901098901,804.6520146520147,796.5934065934066,802.6373626373627,911.4285714285714,-0.163513,0.088867,0.997253,3.910370,-8.284302,-3.730927,1,1,1,1,1,35.000000
2024-10-15 09:31:58.478,0.7872603355018425,-0.2829729134849255,0.00816238713514527,0.1100453676335276,0.147670573553884,-0.3104740350626034,-0.255576012575484,0.05352448599899445,0.2541026317921973,0.03025900169345491,0.05198516187413479,0.4725982970701531,0.4495599112749941,-0.1902103793676227,-0.1553026123833808,0.4146653114939953,0.3634991238641146,-0.4092017347317455,-0.4314779736438834,0.6935540719301051,944.0659340659341,803.4432234432235,794.1758241758242,828.8278388278388,1041.575091575092,-0.161133,0.091431,0.998047,5.039368,-6.437531,-5.368347,1,1,1,1,1,35.000000
2024-10-15 09:31:59.478,0.4971023398774038,-0.1595841862477446,-0.04767295043897912,0.04034530542778932,0.124882555679351,-0.4963421470517581,-0.06543365161628638,0.2786440643239407,0.4446464896244372,-0.008615146716562199,0.05204905461167315,0.5027481187152688,0.3141017245949539,-0.2696894182214544,-0.09862574847716221,0.4909434468478789,0.4276103513246788,-0.4638311884728155,-0.4602458294645047,0.4300834566201034,884.0293040293041,798.6080586080586,797.3992673992674,836.0805860805862,1010.549450549451,-0.169006,0.096741,0.999878,4.792633,-6.818848,-2.968292,1,1,1,1,1,35.000000
2024-10-15 09:32:00.478,0.1183256682367306,-0.370304052814161,-0.2007342178132977,0.2331194642870719,0.1747826931957484,-0.3282585026922148,-0.4621996878430942,0.2701978273949259,0.3250640230520092,-0.07450572767655085,-0.05980205843020969,0.3975455082487252,0.2858059226336824,-0.1550498722834489,-0.1108596424958421,0.3421087244128992,0.4120378658784979,-0.4289997233681891,-0.4514687787966927,0.4497163739504678,800.2197802197802,793.7728937728938,792.5641025641025,794.1758241758242,836.4835164835165,-0.167358,0.094360,0.995422,4.725342,-7.940369,-4.972076,1,1,1,1,1,35.000000
2024-10-15 09:32:01.143,,,,,,,,,,,,,,,,,,,,,,,,,,,,,,,,,,,,,,/muse/elements/blink
2024-10-15 09:32:01.400,,,,,,,,,,,,,,,,,,,,,,,,,,,,,,,,,,,,,,/muse/elements/blink
2024-10-15 09:32:01.478,0.011390090113339,-0.2697357921276114,-0.1765378917178014,-0.3199590054097664,0.1078756456632687,-0.1183550040703403,-0.02257628794581553,-0.2276116665264008,0.1380489186445227,0.05637740923433486,-0.05856045303483917,0.4359070703767776,0.3322016443859767,-0.02467049778988122,-0.1917942691691993,0.330689375985354,0.2561027667696962,-0.4955964813967715,-0.3689049816330076,0.4150092910940615,926.7399267399268,795.7875457875458,797.8021978021978,836.0805860805862,1339.340659340659,-0.160522,0.106567,0.999634,5.166473,-7.431946,-4.396362,1,1,1,1,1,35.000000
2024-10-15 09:32:02.484,0.170679577239157,-0.06529028443206698,0.01971804511826718,-0.3858282395699891,0.09514984353230838,0.04113358252146037,0.2665498921814458,-0.07299401707425004,0.06852392552527199,0.09394990609805574,0.1202202735153485,0.3951457560823965,0.3352988829357995,-0.09662781121899432,-0.2778974100089783,0.377616600070293,0.1503081770282094,-0.386679218235722,-0.3323379114816789,0.3331695713822162,971.8681318681319,800.6227106227107,796.1904761904763,830.8424908424909,866.7032967032967,-0.150757,0.099365,0.993225,4.919739,-6.871185,-5.061798,1,1,1,1,1,30.000000
2024-10-15 09:32:03.478,-0.1331874432051483,-0.3649084224891443,-0.1688529125007856,-0.1645233828521825,-0.005504282844429023,-0.4970080282049717,-0.1041780032311395,0.2389123832976782,0.4069683873791211,-0.07996975475825843,0.2018714353251744,0.2435674780690154,0.2735374595290799,-0.1600420253921734,-0.02556217889140134,0.2301293854793973,0.1402449537531909,-0.4022763684120265,-0.4207913638317196,0.3161323728054314,624.5421245421246,795.3846153846154,788.1318681318681,752.6739926739926,827.6190476190476,-0.149719,0.111572,0.997986,5.144043,-6.669312,-3.805695,1,1,1,1,1,30.000000
2024-10-15 09:32:04.243,,,,,,,,,,,,,,,,,,,,,,,,,,,,,,,,,,,,,,/muse/elements/blink
2024-10-15 09:32:04.478,0.06034683304071128,-0.3832721027424698,-0.03726100420759903,0.2068409407927968,0.1649004161559529,-0.3113203177213665,-0.05526344025895737,0.06155509146901236,0.516944426563509,-0.02760345793595422,0.2334584997715279,0.2225452999003241,0.3968233058236558,-0.1033469105252388,0.02545789937817256,0.3316531187274341,0.2416585843069353,-0.3870908317737441,-0.4235986953258842,0.3200243125572953,898.9377289377289,798.6080586080586,795.7875457875458,830.0366300366301,1256.739926739927,-0.135559,0.122620,0.997620,6.101074,-7.574005,-1.121521,1,1,1,1,1,30.000000
2024-10-15 09:32:05.402,,,,,,,,,,,,,,,,,,,,,,,,,,,,,,,,,,,,,,/muse/elements/blink
2024-10-15 09:32:05.484,0.09841169551609927,-0.3959639167951312,0.1595469692469708,0.4173592414404167,0.07244266044902702,-0.114734965558515,0.02810906350526303,-0.05748509994039743,0.3872256361812795,0.03973655289762233,0.0447855171889223,0.1063195276458869,0.5292885101912506,-0.0665735620367993,-0.2624084815464658,0.3695474848377182,0.3089261938288723,-0.5886526621101844,-0.5705342293651913,0.2369345645223355,991.6117216117217,799.8168498168499,793.3699633699634,843.7362637362637,929.96336996337,-0.141052,0.138123,0.997131,5.682373,-5.704803,-2.594452,1,1,1,1,1,30.000000
2024-10-15 09:32:06.485,0.09841169551609927,-0.1809382196930883,-0.1358235506478468,0.4173592414404167,0.07244266044902702,-0.2187209090957832,0.09733704239035586,-0.05748509994039743,0.3872256361812795,0.02596806592500031,0.1303105376664745,0.1063195276458869,0.5292885101912506,-0.09473591769110454,-0.2189592004293204,0.3695474848377182,0.3089261938288723,-0.5393617035531223,-0.5767794665740666,0.2369345645223355,957.7655677655678,798.6080586080586,791.3553113553114,832.8571428571429,840.1098901098901,-0.147949,0.130188,0.993103,4.044952,-6.213226,-6.848755,1,1,1,1,1,30.000000
2024-10-15 09:32:07.477,0.4905478464861938,-0.3106845431405819,-0.2895396102036332,0.3146050159431454,0.6922075298125189,-0.5304343812236357,-0.2736249770481942,0.3804591458250705,0.5025745661396069,-0.07859348565125468,0.1741497479615468,0.3714856442327433,0.5368571522349457,-0.1354921641856544,-0.1875395254652295,0.4056054111555808,0.2779476650465332,-0.4305910744230734,-0.3222659629764593,0.3087621790252155,914.2490842490843,797.3992673992674,796.5934065934066,816.3369963369963,1068.571428571429,-0.138916,0.134705,0.994019,4.127197,-7.484283,-5.570221,1,1,1,1,1,30.000000
2024-10-15 09:32:08.080,,,,,,,,,,,,,,,,,,,,,,,,,,,,,,,,,,,,,,/muse/elements/blink
2024-10-15 09:32:08.575,0.4894115127953188,-0.595798766159789,-0.1216221715527713,0.4545833582132269,0.4741956121433165,-0.4479166283817015,-0.1964195269074956,0.2394791844245538,0.3343164378513508,0.03687450111499134,0.1358628669494301,0.162851745867911,0.5102904592469665,-0.1356260009355179,-3.090920390223261e-05,0.4624659988540113,0.2133012882038191,-0.5029128994061102,-0.2490957917660783,0.221413230271577,839.7069597069598,789.7435897435897,798.2051282051282,811.0989010989011,1066.556776556777,-0.142639,0.128479,0.999573,4.590759,-8.396454,-4.837494,1,1,1,1,1,30.000000
2024-10-15 09:32:09.573,0.4041005563541891,-0.06001986352285028,-0.2397652016949625,0.4267402213551852,0.5231512131915598,-0.4755606069983314,-0.2842366063818855,0.1514386385316702,0.4359145034966807,-0.2540929512350011,0.1812780939101127,-0.2453288936718511,0.7912502073076784,-0.09805454805568198,-0.107045150125072,0.5520955525999777,0.4288885732655441,-0.4004146921505721,-0.5369964301499196,0.1022310536371368,803.040293040293,788.9377289377289,802.2344322344322,842.9304029304029,677.7289377289377,-0.135986,0.123779,0.998535,4.104767,-5.689850,-5.144043,1,1,1,1,1,30.000000
2024-10-15 09:32:09.696,,,,,,,,,,,,,,,,,,,,,,,,,,,,,,,,,,,,,,/muse/elements/blink
2024-10-15 09:32:10.582,0.4041005563541891,0.1244731613113206,0.204331322402654,0.4267402213551852,0.5231512131915598,-0.3852006935585249,-0.3018107171143611,0.1514386385316702,0.4359145034966807,-0.2319920688599442,0.09380338436378542,-0.2453288936718511,0.7912502073076784,0.01990181834448836,-0.08523765593799615,0.5520955525999777,0.4288885732655441,-0.4277965457385788,-0.5432851816339841,0.1022310536371368,636.6300366300367,796.5934065934066,797.8021978021978,767.1794871794872,566.1172161172161,-0.130920,0.116150,1.002502,3.828125,-8.059998,-5.630035,1,1,1,1,1,30.000000
2024-10-15 09:32:11.570,,,,,,,,,,,,,,,,,,,,,,,,,,,,,,,,,,,,,,/muse/elements/blink
2024-10-15 09:32:11.572,0.1705011022010367,0.187455044975197,-0.1118373822909626,-0.06274902696995828,0.1850667370192798,-0.1549222281652761,-0.4023914421772533,0.4460710797488281,0.3389426707225904,0.2175249606614257,0.1590509920907384,0.4308902234636565,0.5943159927004459,0.1117122303433402,-0.01751063639556558,0.2551339763883056,0.0898538875093933,-0.3542072029025597,-0.5478844728214998,0.2238814726453744,720.4395604395604,787.7289377289378,794.981684981685,790.952380952381,484.7252747252747,-0.122620,0.111145,1.000183,5.203857,-8.560944,-2.280426,1,1,1,1,1,30.000000
2024-10-15 09:32:12.578,0.1127600221186024,0.2268221958808041,0.09903099288610262,-0.1168668426215231,0.1658976345876185,-0.08966134554942107,-0.02488207682299971,0.5415911737819028,0.2992520322668872,0.274717063601763,0.0874838373357156,0.3110015223627425,0.5937121128214392,0.05265610381753377,-0.05873704220829033,0.2583219401055662,0.1110942277136379,-0.2566885031356184,-0.4133374914140389,0.2463297940863381,975.8974358974359,802.6373626373627,794.981684981685,845.3479853479854,880,-0.110229,0.112122,1.005493,5.181427,-6.841278,-5.345917,1,1,1,1,1,40.000000
2024-10-15 09:32:13.576,0.2785845050095799,-0.06266750514341746,-0.0285215610373219,-0.2155689291651033,0.3658086962195955,-0.2739819889785873,0.005802893341149447,0.253006789609881,0.8533186573785391,0.06011839843252754,0.02016866188839618,0.3636724552251707,0.6709969439084732,0.01479092415495128,-0.1927636484604533,0.2720694895672819,0.3403893263849975,-0.2311231547321644,-0.3959306355827907,0.2193672875785317,921.9047619047619,798.2051282051282,797.8021978021978,832.8571428571429,1257.545787545788,-0.122375,0.119690,1.002563,5.487976,-6.078644,-4.067383,1,1,1,1,1,40.000000
2024-10-15 09:32:14.576,0.1560583310118275,-0.6801238849989962,-0.4116038437608504,0.2851723391777309,0.2461204507592134,-0.6166435699648627,-0.185042101352355,0.2483288192646847,0.8304479956605462,-0.07077857732469153,-0.05409565714691783,0.5250503553447474,0.5771670692358676,-0.2658673356332514,-0.1176082367608637,0.3237928170874131,0.252637151974483,-0.3370894030026992,-0.2862301552357334,0.3373630447281995,856.2271062271062,803.040293040293,802.6373626373627,814.7252747252747,1172.930402930403,-0.124146,0.120361,1.000305,4.545898,-7.873077,-4.067383,1,1,1,1,1,40.000000
2024-10-15 09:32:15.576,0.287461274038611,-0.4286303047353444,-0.5352973523597103,-0.09607336196135116,0.5059515602078988,-0.2861982786325454,-0.2815717141385445,0.292824165329658,0.8713828252144542,-0.02930900376023184,-0.02140698962668574,0.676274455177201,0.5082327430385218,-0.3517667314236922,0.00830306943382635,0.4362499704935375,0.2094556101913438,-0.3984123199137764,-0.3397544082313846,0.3773666114798848,948.0952380952381,797.3992673992674,794.5787545787546,824.3956043956044,832.4542124542124,-0.126282,0.119080,0.999939,5.458069,-6.759033,-4.299164,1,1,1,1,1,40.000000
2024-10-15 09:32:16.576,-0.03156233983147511,-0.57730062788725,-0.4634464619514111,-0.03345412673724104,0.2346136540389935,-0.2115367087663323,-0.2647208134283385,0.02829517084549049,0.5656420695562344,-0.06102190922711047,-0.06251238455437216,0.4904944962197914,0.4981370890516924,-0.2489961505787322,-0.007336952740795719,0.5377473200349334,0.3981056214020743,-0.4778297262769743,-0.4007904629758586,0.3005243761103165,882.4175824175825,797.8021978021978,782.893772893773,791.3553113553114,1236.190476190476,-0.117493,0.116821,1.001648,4.815063,-6.684265,-5.667419,1,1,1,1,1,40.000000
2024-10-15 09:32:16.712,,,,,,,,,,,,,,,,,,,,,,,,,,,,,,,,,,,,,,/muse/elements/blink
2024-10-15 09:32:17.576,-0.1798067281745523,-0.3288225915937707,-0.07332124067938027,0.06743439972601367,0.286940502369029,-0.3300056835212778,-0.1369032322216199,-0.1014874215293718,0.2605842091472866,-0.1163115898565963,0.1477206427917555,0.2891128049695131,0.584182299405359,-0.1913252274398552,-0.01710123682741688,0.4483244764738425,0.5182686551238129,-0.5423805057713018,-0.5441768412306247,0.2682234244194674,671.6849816849817,799.4139194139194,799.4139194139194,763.5531135531136,562.893772893773,-0.126160,0.110962,0.998413,5.226288,-8.187103,-3.603821,1,1,1,1,1,40.000000
2024-10-15 09:32:18.576,0.2488469926616221,-0.1199990928057473,0.00651292749073099,0.0883191370467059,0.299796037044303,-0.3626588016013359,-0.09596619512955205,0.1081343155040023,0.3914764270899823,-0.1756923808720402,0.0937120355556471,0.3201588703744231,0.4383696192180474,0.08369103076020874,-0.001978107948356967,0.5499436054979822,0.2898984993598442,-0.3898618708782602,-0.4201631598530784,0.3332884214036911,966.6300366300367,796.5934065934066,790.5494505494506,822.7838827838829,878.7912087912089,-0.127319,0.119568,0.997864,4.732819,-8.336639,-4.575806,1,1,1,1,1,40.000000
2024-10-15 09:32:19.576,0.6089819219130904,-0.2198204092664398,-0.0751155045461665,0.5679915691315222,0.3371927269043467,-0.8021108544831165,0.021813397002355,0.4370009548431865,0.4398597953994416,-0.04567091049183963,0.04693815249338372,0.5747159677956168,0.5013154833063064,-0.1273629747792097,-0.1392694169402703,0.5490135236243153,0.3145909443987639,-0.4464204912471539,-0.3683194605474289,0.4579151610010749,931.1721611721612,796.996336996337,791.3553113553114,826.8131868131868,1248.681318681319,-0.114990,0.120178,1.002075,5.144043,-7.723541,-3.080444,1,1,1,1,1,40.000000
2024-10-15 09:32:20.576,0.4994076269729413,-0.3703423590785679,-0.4930150579211777,0.1415886858041513,0.03324207106129939,-0.6147478508398092,0.09649402238653203,0.3399590772688185,0.3786548572121675,0.0007806661302870953,0.1263749900364486,0.4793091882455993,0.5167027239184848,-0.2650182055489704,-0.2408824506462492,0.379757925170929,0.3690681166089668,-0.5902439526958044,-0.3418274257783005,0.3124556946276695,808.2783882783883,799.0109890109891,777.2527472527473,747.8388278388279,786.9230769230769,-0.111267,0.117920,1.000000,4.957123,-6.564636,-6.160889,1,1,1,1,1,40.000000
2024-10-15 09:32:20.707,,,,,,,,,,,,,,,,,,,,,,,,,,,,,,,,,,,,,,/muse/elements/blink
2024-10-15 09:32:21.090,,,,,,,,,,,,,,,,,,,,,,,,,,,,,,,,,,,,,,/muse/elements/blink
2024-10-15 09:32:21.466,,,,,,,,,,,,,,,,,,,,,,,,,,,,,,,,,,,,,,/muse/elements/blink
2024-10-15 09:32:21.576,0.4470950763074101,0.7227820401680926,0.9182514110567981,-0.3349244304664091,-0.03442053151242658,0.7026486420094126,0.7423033567211355,-0.1466078393335819,0.1602395637506794,0.7436736633989671,0.7213955579261634,-0.07631669450978534,0.3431598854915334,0.2328328371026982,0.01609159266796725,0.1223115478731111,0.3140361742189985,-0.1788125589191565,-0.1003548963366146,0.3393129254362809,978.7179487179487,794.981684981685,792.1611721611722,839.7069597069598,733.7362637362637,-0.118408,0.111755,1.002136,4.912262,-8.045044,-3.820648,1,1,1,1,1,40.000000
2024-10-15 09:32:21.840,,,,,,,,,,,,,,,,,,,,,,,,,,,,,,,,,,,,,,/muse/elements/blink
2024-10-15 09:32:22.576,0.4470950763074101,0.9876453690612861,1.093070919488312,-0.3349244304664091,-0.03442053151242658,0.7938321033064198,0.7726787553230352,-0.1466078393335819,0.1602395637506794,0.8366740898610935,0.6448087545036426,-0.07631669450978534,0.3431598854915334,0.2751003418685253,0.0659118571092029,0.1223115478731111,0.3140361742189985,-0.07800615649345345,-0.2813758226011568,0.3393129254362809,949.7069597069598,806.6666666666667,801.025641025641,845.3479853479854,1209.59706959707,-0.112061,0.111206,1.001953,4.358978,-7.865601,-4.710388,1,1,1,1,1,30.000000
2024-10-15 09:32:23.574,0.4470950763074101,0.7354907142443077,0.6980318741329403,-0.3349244304664091,-0.03442053151242658,0.4775133944233895,0.4026211063747707,-0.1466078393335819,0.1602395637506794,0.6200651006803812,0.2393885325392849,-0.07631669450978534,0.3431598854915334,0.1156818032812367,0.01071059388022863,0.1223115478731111,0.3140361742189985,-0.3921660513090977,-0.4380347305061045,0.3393129254362809,939.6336996336996,792.1611721611722,801.025641025641,857.8388278388279,898.5347985347986,-0.107971,0.106750,1.000061,4.867401,-7.424469,-3.454285,1,2,1,1,2,30.000000
2024-10-15 09:32:23.578,,,,,,,,,,,,,,,,,,,,,,,,,,,,,,,,,,,,,,/muse/elements/blink
2024-10-15 09:32:24.575,0.4470950763074101,0.5138531988441736,0.4616020830811494,-0.3349244304664091,-0.03442053151242658,0.3774019567751724,0.2631489424362695,-0.1466078393335819,0.1602395637506794,0.3235501704129957,0.2805930689378129,-0.07631669450978534,0.3431598854915334,-0.1354739842003953,-0.05878910475451189,0.1223115478731111,0.3140361742189985,-0.3992654156348134,-0.5076613430273266,0.3393129254362809,969.047619047619,792.5641025641025,796.5934065934066,835.6776556776557,946.8864468864469,-0.115662,0.110229,1.002869,5.024414,-7.357178,-4.089813,1,2,1,1,2,30.000000
2024-10-15 09:32:25.575,0.8035760476519025,0.3431668911576338,0.4079587392674147,1.086961292463364,0.8716340605572797,0.1951108801104771,-0.025350879858349,0.7893843993762628,0.5199105764074293,0.1736445094852105,0.2406146986501981,0.7719558819585099,0.5524336252209863,-0.08144661010836957,-0.0022617818893218,0.3378297343040745,0.2410562005210032,-0.1803963651314575,-0.2577979345223543,0.4177606636229579,959.7802197802198,790.952380952381,796.5934065934066,846.1538461538462,1108.461538461539,-0.112976,0.113220,1.005493,4.493561,-7.977753,-4.321594,1,1,1,1,1,30.000000
2024-10-15 09:32:26.576,0.5062111412989814,-0.3424844640899284,0.01203679826684226,0.3550945477047011,0.6549256545737671,-0.1605348517711253,-0.2529845422481728,0.1503852711801491,0.7734270951774955,-0.08274115145537107,0.2530071251194294,0.4426575542555439,0.5159007918743924,-0.006068629379564097,-0.1082429685622145,0.1536221335981716,0.3844873906338117,-0.2652870284280958,-0.3393467081203735,0.28681791421611,884.8351648351648,810.2930402930403,786.1172161172161,757.5091575091575,811.5018315018315,-0.104492,0.116760,1.007141,4.351501,-8.246918,-4.523468,1,1,1,1,1,30.000000
2024-10-15 09:32:26.707,,,,,,,,,,,,,,,,,,,,,,,,,,,,,,,,,,,,,,/muse/elements/blink
2024-10-15 09:32:27.576,0.3547238767722062,0.0607565088037413,-0.02971405973983418,0.1668740718265981,0.5453061387772595,0.08968049150544591,-0.1657157080843066,0.06911614380242279,0.7056672932022039,0.1026895905795048,0.2348532087072982,0.2923905753628758,0.528618154644412,-0.01660507663472778,-0.009718778732385693,0.06005425409915358,0.5305079165540597,-0.4147808905810141,-0.3578951661552432,0.3165923453817761,952.1245421245421,796.5934065934066,781.6849816849817,816.7399267399268,958.5714285714286,-0.101440,0.114014,1.002502,5.009460,-7.379608,-5.144043,1,1,1,1,1,30.000000
2024-10-15 09:32:28.576,0.3488241918019618,-0.1560122402016895,0.0902434053283367,0.2277411640464742,0.3721582691396392,-0.1750900585644558,-0.04561846785099335,0.4772835868555635,0.574343081984079,0.09849255313318776,0.05813606785059597,0.4808772260750152,0.6112568405342097,-0.1115212328940011,0.04227867254329187,0.4141873564408723,0.4249964611511372,-0.4276906063118971,-0.3330414826749225,0.3788678602705664,971.8681318681319,791.3553113553114,798.6080586080586,846.5567765567765,1293.406593406593,-0.110413,0.117310,1.000305,4.972076,-6.886139,-4.037476,1,1,1,1,1,30.000000
2024-10-15 09:32:29.476,,,,,,,,,,,,,,,,,,,,,,,,,,,,,,,,,,,,,,/muse/elements/blink
2024-10-15 09:32:29.576,0.680123829100661,-0.5423347290651733,-0.003106760342306736,0.1468100971207637,0.617186687479549,-0.3039635493700254,-0.1453904269713512,0.3228294151347403,1.178251833025547,0.2434299420493041,0.2314133025144477,0.6130527033049666,0.6686811913286095,-0.04111313317865297,-0.1496301571250607,0.408197183741081,0.537596477179218,-0.5082414032293469,-0.297611747611583,0.3588073272610356,819.96336996337,812.3076923076924,783.6996336996338,724.4688644688645,799.8168498168499,-0.109863,0.117920,1.005493,4.403839,-7.962799,-4.306641,1,1,1,1,1,30.000000
2024-10-15 09:32:29.712,,,,,,,,,,,,,,,,,,,,,,,,,,,,,,,,,,,,,,/muse/elements/blink
2024-10-15 09:32:30.574,1.254017094538222,-0.01363576088379779,0.192873369012234,1.730762256559701,1.166588591182578,0.07193834378708286,0.03460979724956859,1.657938518714325,1.463214556115198,0.3054594169314166,0.2159739717694495,1.475002249733071,0.698106497716394,-0.09675436011995293,-0.09999612966042033,0.6554888822001376,0.5070056359431896,-0.6969727758645975,-0.3789153171298248,0.3399414740957226,1014.578754578755,790.5494505494506,798.6080586080586,877.5824175824176,862.2710622710623,-0.098999,0.114868,1.006592,4.665527,-7.880554,-3.790741,1,1,1,1,1,30.000000
2024-10-15 09:32:30.696,,,,,,,,,,,,,,,,,,,,,,,,,,,,,,,,,,,,,,/muse/elements/blink
2024-10-15 09:32:31.217,,,,,,,,,,,,,,,,,,,,,,,,,,,,,,,,,,,,,,/muse/elements/blink
2024-10-15 09:32:31.576,1.460372477169815,0.3510810200461558,0.2611121727902714,1.823578058511875,1.351987497567087,0.1334853182250857,0.1781835560841614,1.749661905219903,1.463214556115198,0.3688938758015569,0.1918824843236736,1.474999207747469,0.6267297465982523,-0.1079133390760238,-0.1167570394023872,0.7066717787233431,0.2986870865339038,-0.5410039782824239,-0.4005216730236117,0.3155914558321788,972.6739926739928,799.4139194139194,799.8168498168499,862.2710622710623,1210,-0.097839,0.109497,1.000732,4.882355,-6.003876,-4.231873,1,1,1,1,1,30.000000
2024-10-15 09:32:32.492,1.460372477169815,0.3179832265372737,0.298756442723019,1.823578058511875,1.351987497567087,0.2167400121612817,0.09094439833825482,1.749661905219903,1.463214556115198,0.1444518214434191,0.229456393356969,1.474999207747469,0.6267297465982523,-0.07687778877866447,0.02187628040549359,0.7066717787233431,0.2986870865339038,-0.3293416499956151,-0.3462811623526431,0.3155914558321788,881.2087912087912,797.3992673992674,794.5787545787546,815.1282051282052,695.8608058608058,-0.101868,0.113159,1.002258,4.942169,-7.790833,-4.560852,1,1,1,1,1,30.000000
2024-10-15 09:32:33.517,0.5330676857716574,-0.3067915833689248,-0.01436443449870923,0.5502503524043182,0.5032696328995562,-0.02994893729005362,-0.1159530638074974,0.2964132218369208,0.3357630975735609,-0.1089903069828327,0.054000238551127,0.3699327309275525,0.2817515773870641,-0.1274992020391944,-0.06226871089205492,0.3572094699832729,0.2971501558361803,-0.3699945596511127,-0.4662453470694303,0.4040993987139176,715.6043956043957,797.3992673992674,792.5641025641025,790.952380952381,594.3223443223443,-0.109802,0.109863,1.000854,5.181427,-5.420685,-5.241241,1,1,1,1,1,35.000000
2024-10-15 09:32:34.524,0.2565256741886414,-0.5964855508214869,-0.2561275172043699,0.4652270826089168,0.4444217859678692,-0.4091500540732827,-0.2980138212874226,0.1573256328003621,0.3308855775855116,0.1304748615226926,0.0330073317467286,0.5206476745065095,0.5175128044198312,-0.2310792471596175,-0.2118747199008036,0.4769513122235635,0.2372718286564069,-0.6071041054068688,-0.6828770422733794,0.39139896733324,767.985347985348,793.3699633699634,790.952380952381,799.0109890109891,766.7765567765568,-0.115234,0.113281,0.998169,4.807587,-8.202057,-4.381409,1,1,1,1,1,35.000000
2024-10-15 09:32:35.534,0.3423235935901659,-0.4616050256339027,-0.503693362367747,0.1481096555033126,0.2893238476307383,-0.2763411523636053,-0.3032623281949962,0.2557368986488286,0.335543251747128,0.2015428492466603,0.07317820361919308,0.6252411380798133,0.5890537392826949,-0.1523844110101621,-0.1524493973754035,0.4430496570427421,0.394545139498684,-0.4803354217895531,-0.6685508784834716,0.4219038736306029,639.047619047619,802.6373626373627,793.7728937728938,767.985347985348,768.3882783882784,-0.107544,0.116150,1.005310,5.046844,-6.489868,-3.745880,1,1,1,1,1,35.000000
2024-10-15 09:32:36.548,0.6521590221238859,-0.3074860098872874,-0.447754535059045,0.4266236896425784,0.2858988811883577,-0.3210735035787979,-0.1889257007849226,0.4762464123670376,0.6770072689275982,0.273422335206212,-0.09494359114893924,0.6265528007822339,0.5606479329210928,-0.09824200905822576,-0.1339523702364142,0.5464051036554767,0.3807780449725138,-0.3846180986975799,-0.563950849160705,0.3330076142167085,675.3113553113553,801.8315018315019,802.2344322344322,751.4652014652015,552.8205128205128,-0.102234,0.115540,1.007690,3.917847,-8.082428,-5.450592,1,1,1,1,1,35.000000
2024-10-15 09:32:36.801,,,,,,,,,,,,,,,,,,,,,,,,,,,,,,,,,,,,,,/muse/elements/blink
2024-10-15 09:32:37.553,0.71266721234566,-0.1568770088870856,0.3115273315049547,0.3457906930830743,0.3714891930704981,-0.2223680383038942,0.2534450214612621,0.1712507716971085,0.6770072689275982,0.2654311498031368,0.2545945471119753,0.2886186031165623,0.6075369422623561,-0.2123101890954431,-0.004771476135720556,0.6430660484808685,0.1352705969389177,-0.3457581887309974,-0.4747986667206187,0.275039579726749,633.4065934065934,799.0109890109891,788.1318681318681,772.014652014652,864.2857142857143,-0.126831,0.118469,1.001099,4.545898,-9.121704,-3.491669,1,1,1,1,1,35.000000
2024-10-15 09:32:38.420,,,,,,,,,,,,,,,,,,,,,,,,,,,,,,,,,,,,,,/muse/elements/blink
2024-10-15 09:32:38.552,0.7182808600352798,-0.1765485276619067,0.2176338841598745,0.239714232157688,0.4387270592250295,-0.08713370887626687,0.15636839036607,0.1569374809178156,0.6770072689275982,0.3852917637358823,0.539818408467742,0.2521471696240502,0.6121945558003483,-0.1675646598277781,0.03533675709469571,0.6199895414728573,0.07093339358543262,-0.5404994729005272,-0.3695591473793455,0.2781674708617776,633.8095238095239,795.3846153846154,793.7728937728938,763.956043956044,658.7912087912088,-0.128723,0.114197,1.004150,4.702911,-6.422577,-4.411316,1,1,1,1,1,35.000000
2024-10-15 09:32:39.045,,,,,,,,,,,,,,,,,,,,,,,,,,,,,,,,,,,,,,/muse/elements/blink
2024-10-15 09:32:39.550,0.7182808600352798,0.6154448548382839,0.7538945134495918,0.239714232157688,0.4387270592250295,0.4493538917647623,0.5243189524701258,0.1569374809178156,0.6770072689275982,0.7252096841846344,0.9231517139408929,0.2521471696240502,0.6121945558003483,-0.05582945832974092,0.1417289498308431,0.6199895414728573,0.07093339358543262,-0.3801003403487854,-0.2577248761734658,0.2781674708617776,657.5824175824176,794.1758241758242,791.7582417582418,769.1941391941392,587.8754578754579,-0.128418,0.112671,1.005676,5.091705,-6.347809,-4.231873,1,2,1,1,2,35.000000
2024-10-15 09:32:40.553,0.7182808600352798,0.5635313647484568,0.7868479843159175,0.239714232157688,0.4387270592250295,0.01110726787589116,0.3263435944710653,0.1569374809178156,0.6770072689275982,0.4995726114182599,0.4898546073968469,0.2521471696240502,0.6121945558003483,-0.06250309192432335,0.05126744121749645,0.6199895414728573,0.07093339358543262,-0.2702384398493782,-0.2134579736578839,0.2781674708617776,648.3150183150183,795.7875457875458,798.2051282051282,771.6117216117216,928.3516483516484,-0.134949,0.108154,0.997803,4.418793,-7.708588,-4.224396,1,2,1,1,2,35.000000
2024-10-15 09:32:41.572,0.8569435970141634,0.5021891341228363,0.4615506691051657,0.5201035903670208,0.6696635197640296,0.04908958765689294,0.2971666498911987,0.5736021129019667,0.9217229296637776,0.6142534385788896,0.2768860556416547,0.7666449036381386,0.6684391914059963,-0.1096632922820719,0.05456532196391791,0.4288653129402284,0.495939270182903,-0.4208778817028178,-0.3714341148693112,0.3499660854065191,726.4835164835165,799.8168498168499,793.7728937728938,782.0879120879121,687.8021978021978,-0.112488,0.116272,0.996338,4.687958,-8.254395,-4.366455,1,1,1,1,1,35.000000
2024-10-15 09:32:42.334,,,,,,,,,,,,,,,,,,,,,,,,,,,,,,,,,,,,,,/muse/elements/blink
2024-10-15 09:32:42.576,0.6083428544139097,-0.02519480088192678,-0.00468235055471172,0.3747956340204973,0.4078990930023644,-0.3873924683580985,0.1768030737813936,0.2003117820278861,0.6280607442240516,0.3704901695466825,0.1876384066602041,0.5319711300248059,0.6126790969782122,-0.1763443757171659,-0.1529406247543314,0.3770144280742521,0.5016610504962246,-0.5299422051257739,-0.4877500110955387,0.2331431494486739,804.2490842490843,801.8315018315019,798.6080586080586,816.3369963369963,782.893772893773,-0.122742,0.116699,1.003418,5.054321,-5.622559,-4.957123,1,1,1,1,1,35.000000
2024-10-15 09:32:42.582,,,,,,,,,,,,,,,,,,,,,,,,,,,,,,,,,,,,,,/muse/elements/blink
2024-10-15 09:32:43.576,0.3071872181355376,0.3833944566504783,0.370643855541302,0.1227871317031313,0.4748657063124512,0.01851177477816221,0.190134519706192,0.1488662764541601,0.4287790426641512,0.002138668579605491,-0.1785591322746631,0.2788222053119424,0.6297592532324948,-0.220807085084304,-0.1318576312484435,0.3309893107013242,0.4696686459815379,-0.5099048370528984,-0.4825384708884506,0.2260347226149476,836.4835164835165,792.5641025641025,789.7435897435897,807.0695970695971,960.5860805860806,-0.113342,0.115479,1.001465,4.972076,-7.985229,-3.611298,1,1,1,1,1,40.000000
2024-10-15 09:32:44.574,0.5186312705299758,0.02870866506020722,0.1345455717612431,0.3508556116806659,0.2331859225524922,-0.08957167078657771,-0.1487206697851335,0.2952062864699299,0.651195960641886,-0.1498512017471335,-0.0327114808876934,0.3371195144665739,0.5603315581126292,-0.2522164459549861,-0.2374531700035856,0.5718179294872323,0.2938996126297341,-0.5045123140052205,-0.4857239962261907,0.3764281094976765,890.4761904761905,796.996336996337,790.952380952381,816.3369963369963,717.6190476190476,-0.109070,0.121460,1.002380,4.635620,-7.469330,-4.702911,1,1,1,1,1,40.000000
2024-10-15 09:32:45.574,0.3051692003024264,-0.7487598210023443,-0.02311892042864424,0.0687220090679572,0.2785610405847315,-0.405672958673062,-0.5804003150168389,-0.01605158541628938,0.6115835811577863,0.07940952885398621,0.1038619994066635,0.3268269270592295,0.6349350896815795,-0.1210945928703097,-0.2552542807383322,0.4164699693244926,0.2749102609037989,-0.5047943717857448,-0.3531077211165445,0.3087914985380528,704.7252747252747,805.4578754578755,792.1611721611722,737.7655677655678,751.0622710622711,-0.118774,0.117920,1.000427,5.271149,-1.114044,-6.273041,1,1,1,1,1,40.000000
2024-10-15 09:32:45.710,,,,,,,,,,,,,,,,,,,,,,,,,,,,,,,,,,,,,,/muse/elements/blink
2024-10-15 09:32:46.574,0.188555541001262,-0.1540903631956028,0.2291773470727427,-0.1208020553462233,0.3074477665864168,-0.3871071787986475,-0.2867601360038564,-0.2252068237822251,0.2065428843565048,0.1193583346834003,0.1574989352027116,-0.05381773498123388,0.5793206774778612,-0.1600892886322219,-0.1057381691322322,0.1047708147387213,0.1523416817382172,-0.555758261916048,-0.2886543524773307,0.1263672240959538,790.1465201465202,792.5641025641025,799.0109890109891,816.3369963369963,811.0989010989011,-0.140381,0.119080,1.005615,5.256195,-8.314209,-5.203857,1,1,1,1,1,40.000000
2024-10-15 09:32:47.574,0.1829443054579928,0.08225292689721488,0.2218298442432285,-0.1182768769026126,0.2105756326589294,-0.07128952150739112,-0.1395055692749047,-0.1815011880447743,0.2001709186148384,0.08020947171830094,0.3025770151971401,-0.08200231489379269,0.4984881767311455,-0.1699235062055883,-0.07575722919848536,0.0841170217282486,0.06801531784008891,-0.4989401551554403,-0.3458509380819733,0.1360603778737661,895.3113553113553,799.0109890109891,785.7142857142858,829.2307692307693,744.6153846153846,-0.132263,0.119385,1.001221,4.949646,-6.041260,-3.499146,1,1,1,1,1,40.000000
2024-10-15 09:32:48.574,0.7064638817814418,-0.03960508524859541,0.09629800814706413,0.5340126666069099,0.7069544658296187,-0.1548679759237672,-0.1098102642733929,0.5844680980460241,0.8777156733867472,0.08876165924062854,0.2483911915856843,0.4862358710776833,0.7413937127944842,-0.1012807143848109,-0.1937646599978067,0.6827211399347632,0.6711468652011719,-0.4159035246028298,-0.4620981738605261,0.7792205744132236,928.7545787545788,792.967032967033,795.7875457875458,824.3956043956044,798.6080586080586,-0.129272,0.122925,1.002869,5.577698,-7.686157,-2.863617,1,1,1,1,1,40.000000
2024-10-15 09:32:49.574,0.4621715339583322,-0.04957985403423512,-0.276576632450483,0.05468002228339901,0.236807985484856,-0.4807983310810072,-0.1979341107480955,0.08053169539040415,0.6884052978042798,-0.03099828069082071,0.02350599149317738,0.546016603994231,0.6681301915422775,-0.1393457053075774,-0.1770568706562987,0.4739708099170793,0.5236990173647286,-0.5594426166798915,-0.5807302805782578,0.5234248006959339,805.4578754578755,797.3992673992674,793.3699633699634,796.996336996337,843.7362637362637,-0.125977,0.128052,0.997009,5.084229,-7.162781,-3.192596,1,1,1,1,1,40.000000
2024-10-15 09:32:49.835,,,,,,,,,,,,,,,,,,,,,,,,,,,,,,,,,,,,,,/muse/elements/blink
2024-10-15 09:32:50.574,0.3363695084631562,-0.1398323005858396,-0.3692466202265059,0.2364839881029128,0.1116254216365123,-0.3971185866772646,-0.3089579793297039,0.3068756204080529,0.500569428165115,-0.1649849929352532,-0.1229804196167233,0.4281724353688305,0.5677718125082759,-0.2592497290294222,-0.1333963589959933,0.4849116705177038,0.4300895350189803,-0.3783173529896319,-0.5294447464121628,0.3450332536054952,868.3150183150184,799.0109890109891,786.5201465201466,810.6959706959707,805.4578754578755,-0.132019,0.130859,0.994568,4.882355,-6.871185,-3.663635,1,1,1,1,1,40.000000
2024-10-15 09:32:51.574,-0.1736451807329153,-0.1447426524157885,0.1600030192087724,-0.1255916664796846,0.3502110780120493,-0.09738817111832325,-0.2036151495228312,0.4793898064645135,0.4446827162039558,-0.1668827522344421,0.1938096075145968,0.440672442488022,0.8643546823904265,-0.1283733982570368,-0.0141258471949729,0.5812279806404539,0.4486662635403739,-0.5106460855239287,-0.5094448866414133,0.3320880157445315,733.7362637362637,802.6373626373627,791.3553113553114,768.3882783882784,641.8681318681319,-0.127808,0.129700,1.000366,4.598236,-8.441315,-4.029999,1,1,1,1,1,40.000000
2024-10-15 09:32:52.574,0.1755290463292843,-0.3840969230851473,-0.1634666474048876,0.08718870633135835,0.5349041460298235,-0.3212446672520194,0.04394130035382764,0.4857466115285049,0.5259123316013751,-0.06648734233585836,0.06850701542022122,0.6226622152151315,0.7571901095482096,-0.1779565329057984,-0.1250565251728331,0.5031761246236321,0.5237539812344139,-0.5887217785870366,-0.558309768477028,0.5276831266211777,779.2673992673992,800.6227106227107,790.952380952381,790.5494505494506,679.3406593406594,-0.157471,0.124939,0.997742,3.738403,-4.523468,-3.035583,1,1,1,1,1,40.000000
2024-10-15 09:32:52.836,,,,,,,,,,,,,,,,,,,,,,,,,,,,,,,,,,,,,,/muse/elements/blink
2024-10-15 09:32:53.574,0.4902849030694574,0.2107037872143637,0.2473770405701987,0.2115146563405546,0.725228989644404,0.05438156616513523,0.2734439366526975,0.4755534033198142,0.5193635420606881,0.3018454779274209,-0.116610269130856,0.6609745830752879,0.8043996926488171,0.02998391538247854,-0.06299172699930373,0.4768397437548964,0.7117037164440833,-0.2566488281344405,-0.3785348663503267,0.584981375112954,875.5677655677656,791.3553113553114,799.0109890109891,820.3663003663004,819.5604395604396,-0.156677,0.121216,0.988464,4.201965,-6.691742,-3.895416,1,1,1,1,1,35.000000
2024-10-15 09:32:54.574,0.3658683398111396,0.1976422431125786,0.2952634563645339,0.1742708614417451,0.4088397781481448,0.02996887537229784,0.1566454620185,0.4963860530361565,0.1584201260579928,0.2721804814188494,-0.2156767753623491,0.6181335748615526,0.4568094663981382,0.07716524631881107,-0.1549220185437126,0.5238885328450977,0.6309059663189698,-0.2911439168588572,-0.3975703736920618,0.5346749601645054,736.1538461538462,799.8168498168499,791.3553113553114,788.5347985347986,977.5091575091575,-0.143250,0.123108,1.006042,4.822540,-6.549683,-4.157104,1,1,1,1,1,35.000000
2024-10-15 09:32:55.461,,,,,,,,,,,,,,,,,,,,,,,,,,,,,,,,,,,,,,/muse/elements/blink
2024-10-15 09:32:55.574,0.3658683398111396,-0.05683610210770123,0.2415376837514682,0.1742708614417451,0.4088397781481448,0.01041262039809018,-0.307395928420801,0.4963860530361565,0.1584201260579928,0.07847478923861427,-0.1644936365822259,0.6181335748615526,0.4568094663981382,-0.0734753112303981,-0.02546290261309041,0.5238885328450977,0.6309059663189698,-0.4971820440433194,-0.2734602589471997,0.5346749601645054,830.4395604395604,786.5201465201466,801.4285714285714,844.1391941391942,898.1318681318681,-0.148438,0.119995,1.000610,4.411316,-6.190796,-5.106659,1,1,1,1,1,35.000000
2024-10-15 09:32:56.574,0.3658683398111396,-0.01976143262501808,0.1260720529042371,0.1742708614417451,0.4088397781481448,-0.116215305214634,-0.2939500844454296,0.4963860530361565,0.1584201260579928,-0.02182125452648924,0.1201919449133488,0.6181335748615526,0.4568094663981382,-0.1308978143221589,0.0454972904317624,0.5238885328450977,0.6309059663189698,-0.5970141829798861,-0.3523109041248847,0.5346749601645054,871.941391941392,799.8168498168499,788.9377289377289,786.9230769230769,764.3589743589744,-0.140808,0.122498,1.002075,5.233765,-7.656250,-3.902893,1,1,1,1,1,35.000000
2024-10-15 09:32:57.574,0.3977240088211315,-0.3229725074274137,-0.1849053078706336,0.2917479516653997,-0.2356416774719901,-0.1851061466387691,-0.2361098939690633,0.317386572422207,0.2541324239151257,0.0737390649250982,0.0008835207795858351,0.5700061805094399,0.644921452648567,-0.03301928044188837,-0.0217947376223909,0.5539695073333174,0.6192466453247505,-0.5288337124534491,-0.4926028368741459,0.4121391782881779,701.5018315018315,803.4432234432235,792.5641025641025,765.9706959706959,779.2673992673992,-0.140564,0.113342,1.001038,4.889832,-7.476807,-4.344025,1,1,1,1,1,35.000000
2024-10-15 09:32:57.713,,,,,,,,,,,,,,,,,,,,,,,,,,,,,,,,,,,,,,/muse/elements/blink
2024-10-15 09:32:58.336,,,,,,,,,,,,,,,,,,,,,,,,,,,,,,,,,,,,,,/muse/elements/blink
2024-10-15 09:32:58.574,0.4002621964489565,0.08296073099043208,0.2415528184509011,0.1673530118881168,-0.2384279464400542,-0.1357538204643443,-0.08417246289681257,0.3432581622241284,0.3490464359707505,0.128331583159206,0.08210762023782062,0.3966244479865439,0.6498542504187332,-0.1589968806868665,-0.1145815507044751,0.4330714363931032,0.6008676615421663,-0.4998711509142502,-0.3704661829860132,0.4901512037188858,820.3663003663004,809.4871794871796,787.3260073260074,814.7252747252747,793.3699633699634,-0.131470,0.112366,1.002380,4.702911,-7.588959,-5.016937,1,1,1,1,1,35.000000
2024-10-15 09:32:59.574,0.3138063053492587,0.6739527470920117,0.7424920795697165,0.08177002148271957,-0.3541309203778553,0.1642949049822411,0.1903268509164383,0.3027306821648348,0.2148163343565889,0.3835438891097891,0.1114045643746311,0.3136970695060144,0.6582223404198821,-0.07467900698246324,-0.01301608154585166,0.3416888296585673,0.5221668823165209,-0.5980412623796602,-0.2613439278544072,0.466971596526543,682.967032967033,787.7289377289378,794.981684981685,779.2673992673992,621.3186813186813,-0.131592,0.106934,0.996704,4.957123,-6.975861,-3.476715,1,1,1,1,1,35.000000
2024-10-15 09:33:00.574,0.4918196142782496,0.1933916895635103,0.1874548786025568,0.03603784570383002,0.26560006519181,-0.06802092402981984,-0.2657244219337154,0.1224446560251694,0.5316020245969785,0.3460311198256776,0.02330872988931675,0.7070262087182618,0.5999691753465547,-0.003708486807436029,-0.1591653173621675,0.4059585818338331,0.3776095379416398,-0.5895179016156303,-0.4498294446789264,0.3890394992328378,751.8681318681319,794.1758241758242,796.5934065934066,800.6227106227107,877.985347985348,-0.133606,0.120544,0.996887,4.837494,-6.714172,-3.880463,1,1,1,1,1,35.000000
2024-10-15 09:33:01.339,,,,,,,,,,,,,,,,,,,,,,,,,,,,,,,,,,,,,,/muse/elements/blink
2024-10-15 09:33:01.574,0.3181424151769938,-0.2168117703938287,0.0946820787471641,-0.002319789059930344,0.2233953110114694,-0.2361777623730037,-0.09514830411999095,0.3402902782229299,0.6243953303860149,0.008519689768231625,-0.07318043857151582,0.7120613397777253,0.582706467256065,-0.1950687666823087,-0.1164176398115252,0.4968369863015039,0.3541788997094086,-0.5496974640095361,-0.5319421187607101,0.5827923350119388,823.992673992674,794.5787545787546,800.6227106227107,816.3369963369963,584.2490842490843,-0.132751,0.121887,0.996277,4.919739,-7.177734,-3.835602,1,1,1,1,1,35.000000
2024-10-15 09:33:02.574,0.1450896477395616,-0.5410807937397974,-0.1042800188505746,0.2657499896915155,0.3499511350140179,-0.1925120262768598,-0.1665355514146753,0.4230544115698293,0.6634927080866658,-0.0347957865169902,-0.0230599818515544,0.714921574090826,0.4978000053715655,-0.2244074938379339,-0.008599156440102392,0.5393218623720554,0.4384942239756591,-0.5640600761996631,-0.3834030762880079,0.5418488202394786,849.3772893772895,800.6227106227107,786.9230769230769,782.0879120879121,805.4578754578755,-0.112854,0.123291,1.000000,5.226288,-7.850647,-3.454285,1,1,1,1,1,35.000000
2024-10-15 09:33:02.586,,,,,,,,,,,,,,,,,,,,,,,,,,,,,,,,,,,,,,/muse/elements/blink
2024-10-15 09:33:03.573,0.2025258587144662,0.2638339644099346,0.1904776665433766,0.05996540438312707,0.2652926303458889,0.2106283942331648,-0.01461123324759173,-0.05254595019521655,0.3629958010226804,0.1764220874619469,0.02710173353523521,0.1347841073833072,0.3977889613884329,-0.1773907705218112,-0.1212519171476835,0.4452239486719902,0.554519027671841,-0.5455375174712226,-0.3979972570650319,0.4405362030358213,746.6300366300367,793.3699633699634,793.7728937728938,787.3260073260074,863.4798534798535,-0.124268,0.130798,1.000793,5.188904,-6.916046,-3.730927,1,1,1,1,1,35.000000
2024-10-15 09:33:04.573,0.1961348998302969,0.1274827768791124,0.01064940744570023,0.0915283773289096,0.4141032413456066,0.05190414414377342,-0.1740648144071959,-0.04793038748990159,0.5067030722863958,0.07119881340334731,0.1529031307248062,0.2373701672461795,0.6601483194191523,-0.2259489001509113,-0.2483575414240176,0.5197321846106252,0.4466843130326146,-0.61530984458486,-0.515770515354714,0.3236775445557928,809.0842490842491,791.7582417582418,789.3406593406594,797.3992673992674,740.1831501831502,-0.124084,0.134521,0.999512,4.373932,-6.781464,-4.044952,1,1,1,1,1,35.000000
2024-10-15 09:33:05.350,,,,,,,,,,,,,,,,,,,,,,,,,,,,,,,,,,,,,,/muse/elements/blink
2024-10-15 09:33:05.574,0.1511936680817236,-0.5240438985375853,-0.2953792657423202,0.1539480500713604,0.3044966346851447,-0.42423044201473,-0.1652602328691334,0.2467891229227402,0.5733640890376953,-0.0626378298013964,0.09611095455484524,0.4284383676970469,0.7023995104457278,-0.1790016821671908,-0.2550712845404698,0.4895096578231046,0.4300117251011698,-0.4913938158163291,-0.5006208472190321,0.4830408449449855,687.3992673992674,800.6227106227107,792.967032967033,777.2527472527473,658.7912087912088,-0.115967,0.127014,1.003723,4.216919,-7.626343,-5.644989,1,1,1,1,1,35.000000
2024-10-15 09:33:06.574,0.2319654408477427,0.3295863744690064,0.1808924764644021,0.3155168507991993,0.2757159197248985,-0.01704554088294232,-0.1208594519101199,0.2899499912480076,0.3473731815240512,-0.03784693231695458,0.1824296616494091,0.2169538919643008,0.7147450499423554,-0.1454120149691257,-0.1841090169936213,0.3556624033004001,0.563460237584223,-0.4248052002680962,-0.6274672121819085,0.4078359081736692,772.014652014652,803.4432234432235,800.6227106227107,819.5604395604396,834.0659340659341,-0.112305,0.115295,1.000000,4.747772,-6.916046,-3.783264,1,1,1,1,1,35.000000
2024-10-15 09:33:07.573,0.373411305229157,-0.07203646884792692,-0.2508516358317707,-0.145314360353706,0.138924544887836,-0.1942100361494088,-0.2413182534760553,0.07415709876375201,0.5901116083141574,-0.1264833793048157,0.01869623552330512,0.3422621060926264,0.761165431939869,-0.1682688417102172,-0.1231323136695942,0.4130645534356692,0.4380772070170319,-0.6502356953007584,-0.666701754373634,0.4470909452603538,804.6520146520147,792.1611721611722,790.5494505494506,796.1904761904763,685.3846153846154,-0.103943,0.126648,1.001221,4.792633,-6.908569,-4.889832,1,1,1,1,1,35.000000
2024-10-15 09:33:08.481,,,,,,,,,,,,,,,,,,,,,,,,,,,,,,,,,,,,,,/muse/elements/blink
2024-10-15 09:33:08.573,0.2925885347034015,-0.5644514114826594,-0.2418027398165161,-0.2342807029393732,0.1931105560335206,-0.251662933659676,-0.1352916586776321,0.2004633352700526,0.6525577956807045,0.00449579139767918,0.2197599731197103,0.7423955030534037,0.7482164262846697,-0.09482900278924755,-0.07929890381463923,0.3059310598844334,0.493782879425583,-0.5982351733362273,-0.4508759525012439,0.3697154530018856,695.0549450549451,795.7875457875458,796.5934065934066,775.2380952380953,848.974358974359,-0.125977,0.121948,0.999573,4.822540,-5.689850,-4.164581,1,1,1,1,1,35.000000
2024-10-15 09:33:09.210,,,,,,,,,,,,,,,,,,,,,,,,,,,,,,,,,,,,,,/muse/elements/blink
2024-10-15 09:33:09.573,0.3965535949841987,-0.0328499905859126,0.1074222682826294,0.6504078879760777,0.9675030815437242,0.03270462732820426,0.1112203522387173,1.075989413550206,0.8501094932376203,0.2834841420374847,0.249230348578024,0.8915121853012945,0.5734859268922167,-0.1968221639165842,-0.04568679606610065,0.3766578557711152,0.535249129359883,-0.4512269316874413,-0.2827880194873996,0.4994569891127084,754.2857142857143,800.2197802197802,796.5934065934066,791.7582417582418,997.2527472527473,-0.115479,0.123047,1.000061,4.553375,-7.461853,-4.523468,1,1,1,1,1,35.000000
2024-10-15 09:33:10.573,0.6407631807247166,0.0593421681261293,0.1912073983041866,0.950929075241675,1.274002578996515,0.0339114284241338,0.1628691800542534,1.377946989295953,0.8101218333171377,0.1972994114990208,0.1673392103543541,0.8637404488014212,0.5990124082456172,-0.1231127743925397,-0.06617147756851063,0.4753907955993352,0.4892270917360784,-0.5048297561722283,-0.4824558067195445,0.5591251818038967,905.7875457875458,793.7728937728938,797.3992673992674,823.1868131868132,887.2527472527473,-0.099609,0.127869,1.006287,4.994507,-7.349701,-4.747772,1,1,1,1,1,35.000000
2024-10-15 09:33:11.573,0.2352451913374805,-0.4946793925719847,-0.1677085346102979,0.009790032950229663,0.3667047655982537,-0.2103791842072395,-0.0002323814643054229,0.1111007954521025,0.4142460384798854,-0.212406364059048,-0.04447926465755603,0.5259401924470759,0.611791166139081,-0.1905378573352236,-0.05896859909554575,0.1929136660067328,0.4639736974461203,-0.4824285115122305,-0.5325472195146079,0.2157865343284144,799.8168498168499,790.1465201465202,787.7289377289378,780.0732600732601,771.2087912087912,-0.110779,0.128540,1.002930,4.471130,-7.215118,-4.314117,1,1,1,1,1,35.000000
2024-10-15 09:33:12.342,,,,,,,,,,,,,,,,,,,,,,,,,,,,,,,,,,,,,,/muse/elements/blink
2024-10-15 09:33:12.574,0.4668291558422207,-0.1895818219266442,-0.04286198595932115,0.1484012766415868,0.3427950948039595,-0.03651175934838503,0.07824003892697093,0.1329125909742712,0.5304707013927294,0.0681379167827834,0.04057695798582701,0.2413655091833812,0.6070571930906139,-0.1510364709983713,-0.1447530982606746,0.225331959901081,0.4283105932162014,-0.5309322076370553,-0.4410308091018069,0.3388695883850988,885.2380952380953,798.6080586080586,799.8168498168499,825.2014652014652,1036.336996336996,-0.110474,0.129089,0.995300,4.710388,-8.097382,-3.701019,1,1,1,1,1,35.000000
2024-10-15 09:33:13.567,0.2731393828079729,0.04254992650959057,0.1998090223576004,0.2462418310600575,0.1440579248422403,0.1078130639221713,0.3660317845776336,0.05636770402789028,0.4440121386533549,0.1323079719595885,-0.06495298629525667,0.006767110291850135,0.5380538595868671,-0.03285597304029137,-0.1855978439300456,0.2823242770703395,0.5290110757303343,-0.4903343926291227,-0.3502428315830149,0.2885024894371946,948.901098901099,801.4285714285714,796.1904761904763,825.6043956043957,1014.981684981685,-0.094666,0.133728,1.007629,5.345917,-6.407623,-3.738403,1,1,1,1,1,35.000000
2024-10-15 09:33:14.575,0.2680163154227561,-0.2567880550316479,-0.1396575825007697,0.03416642380951465,0.3397771402898872,-0.3564154570198257,-0.195393013992837,0.1334431134357596,0.2161114635127143,-0.08500271241748916,-0.04326102493134207,0.4629690867538231,0.4931265544961161,-0.1612043421177617,-0.1389980152091834,0.4735645801936255,0.422139767749956,-0.6297158455768603,-0.3506533494986639,0.2210104078488604,968.2417582417582,796.5934065934066,791.7582417582418,831.6483516483516,876.7765567765568,-0.103943,0.125793,0.992676,4.441223,-8.112335,-3.962708,1,1,1,1,1,30.000000
2024-10-15 09:33:15.573,0.3675500844353229,-0.5012308785755768,-0.2684952240624354,0.2822295682131518,0.4972721251181739,-0.4102093056826495,-0.2384710242262641,0.117925726028802,0.5364753336966809,-0.1799093099977507,0.006137960839585261,0.4775477949764265,0.500963940295355,-0.1948033709679444,-0.1703103711586607,0.359095982466923,0.3951707713097535,-0.3510821516725728,-0.6135598960747511,0.2539668788712817,881.2087912087912,795.7875457875458,795.7875457875458,829.2307692307693,1093.150183150183,-0.100769,0.123230,1.005920,4.658051,-7.364655,-4.538422,1,1,1,1,1,30.000000
2024-10-15 09:33:16.089,,,,,,,,,,,,,,,,,,,,,,,,,,,,,,,,,,,,,,/muse/elements/blink
2024-10-15 09:33:16.470,,,,,,,,,,,,,,,,,,,,,,,,,,,,,,,,,,,,,,/muse/elements/blink
2024-10-15 09:33:16.573,0.2032408329289974,-0.1855854512161122,0.31947541678624,0.1288989427215862,0.4274710998771672,-0.09688695846087737,0.1549833546083683,0.2532535257379389,0.536016357907064,-0.07713426862452916,0.443465310855934,0.4005188067701488,0.5374069002812423,-0.1835668123659733,-0.09882057266705861,0.414533165271019,0.1825423681003935,-0.4543812622901845,-0.570450568032041,0.3426273336784497,960.989010989011,799.0109890109891,800.2197802197802,849.7802197802198,884.4322344322345,-0.102905,0.124817,1.004395,4.740295,-6.953430,-4.358978,1,1,1,1,1,30.000000
2024-10-15 09:33:16.963,,,,,,,,,,,,,,,,,,,,,,,,,,,,,,,,,,,,,,/muse/elements/blink
2024-10-15 09:33:17.573,0.282612868225722,0.6149953462884598,0.5968946962103121,0.2074197972014263,0.2894911718579731,0.4031537400186732,0.2384838604230749,0.405656564865892,0.3301440803193959,0.3890547600195422,0.459674379875118,0.4005188067701488,0.6112679585785951,0.01081394502381279,0.08405584352025146,0.3962655614163466,0.1391726374996298,-0.4342366220994437,-0.327722309405982,0.2011711521979218,803.4432234432235,797.8021978021978,790.5494505494506,799.0109890109891,762.7472527472528,-0.100159,0.132507,1.004272,4.725342,-7.798309,-3.805695,1,1,1,1,1,30.000000
2024-10-15 09:33:18.573,0.02013332426352205,0.3629179904317523,0.09464102041915742,-0.1572090545817624,0.1406121968569568,0.2081238687516253,0.1328496226621634,0.07078500775983824,0.3865997760706215,0.3983448642857196,0.3226021426430455,0.0873499426653787,0.6570626253241966,-0.003021099007002294,-0.1481641393716963,0.3988805904513502,0.3270259347108306,-0.5310149225418215,-0.3806135211967911,0.4146932674183171,879.1941391941392,803.040293040293,797.8021978021978,823.1868131868132,1074.615384615385,-0.100159,0.131226,1.001526,4.949646,-7.574005,-2.729034,1,2,1,1,2,30.000000
2024-10-15 09:33:19.573,0.1628960069060487,-0.5614368788871335,-0.1929977523710911,0.08272827662124911,0.3037590900158517,-0.4549980649435453,0.06384854957320286,0.09897718196477244,0.7932807626805189,0.05005070574845225,0.1892777258961357,0.4992986465066671,0.605873013748797,-0.03662849808031583,-0.07775366341508379,0.444824357079835,0.5679523303479134,-0.5048111867961489,-0.3553558831372691,0.4972156069800687,936.4102564102565,799.8168498168499,797.3992673992674,828.4249084249085,785.3113553113553,-0.094788,0.130127,0.997681,5.465546,-6.190796,-3.790741,1,1,1,1,1,30.000000
2024-10-15 09:33:20.573,0.5148971320858006,-0.4889192183046492,-0.02234549624401237,0.3772639204257835,0.7450614772634658,-0.3138152054902581,-0.2282708277335674,0.6393280647313974,0.8902036521188157,0.03521030848714566,0.2979947575860042,0.9144805091568291,0.7462528471471209,-0.06036101383195945,-0.0554840680412006,0.5144173428208624,0.5382371468299977,-0.7183913151430988,-0.2370916110469869,0.4730594888730577,797.8021978021978,800.6227106227107,801.4285714285714,801.4285714285714,744.6153846153846,-0.090820,0.137146,1.002258,4.882355,-7.686157,-3.693542,1,1,1,1,1,30.000000
2024-10-15 09:33:21.557,0.8761319760441107,-0.287948161329266,-0.2608954651185076,0.3712205107048065,0.7635592510467176,-0.4737798214207517,-0.1541044067211634,0.6074369333510765,0.6456224683432018,-0.1867605522839166,0.2933742631210788,0.9031062209938261,0.7682870113943053,-0.1299967133447441,-0.02432982886496936,0.5714458155439717,0.3315652289140895,-0.4654081513980802,-0.6003727795224547,0.3032044323378464,868.7179487179487,796.1904761904763,788.5347985347986,815.934065934066,957.3626373626374,-0.084656,0.135803,0.999390,4.717865,-6.452484,-4.508514,1,1,1,1,1,30.000000
2024-10-15 09:33:22.573,0.9655862505990643,-0.2665755271372974,-0.1701353919193606,0.1807609481089681,0.7902318669658248,-0.4831799616300701,-0.3547427479625601,0.0753770086986964,0.6307195058334452,-0.1750789864432276,-0.1332889669584733,0.5496093133091636,0.7596004488410125,-0.1510672502352891,-0.08853789936992615,0.3675430787751698,0.4218002038579043,-0.4904055406509117,-0.5888858573491685,0.2620703397862199,812.7106227106227,801.8315018315019,783.2967032967033,718.021978021978,751.4652014652015,-0.095276,0.145264,1.003723,4.082336,-7.723541,-5.966492,1,1,1,1,1,30.000000
2024-10-15 09:33:22.711,,,,,,,,,,,,,,,,,,,,,,,,,,,,,,,,,,,,,,/muse/elements/blink
2024-10-15 09:33:23.096,,,,,,,,,,,,,,,,,,,,,,,,,,,,,,,,,,,,,,/muse/elements/blink
2024-10-15 09:33:23.573,0.7514377722734851,0.6117213419534289,0.6955432661384594,-0.1068988327963986,0.6897584194880912,0.08338650586270227,0.3144427408237035,-0.318395225130904,0.4755362852889946,0.2971539032153814,0.3969339445022322,0.2732903663601567,0.6991786426373209,-0.1181945518514606,-0.09887054138795726,0.2971147507766324,0.3928536946537892,-0.4922351455467542,-0.3404355316171814,0.4234142582159773,804.6520146520147,803.040293040293,796.996336996337,804.6520146520147,622.1245421245421,-0.106934,0.127502,1.001587,4.560852,-6.803894,-4.635620,1,1,1,1,1,30.000000
2024-10-15 09:33:24.073,,,,,,,,,,,,,,,,,,,,,,,,,,,,,,,,,,,,,,/muse/elements/blink
2024-10-15 09:33:24.573,0.7514377722734851,0.8244660831624218,0.7918208506716679,-0.1068988327963986,0.6897584194880912,0.4291207763173796,0.4040358209163482,-0.318395225130904,0.4755362852889946,0.4629870860389581,0.5230402978541451,0.2732903663601567,0.6991786426373209,-0.01894035448518339,-0.02200749842828871,0.2971147507766324,0.3928536946537892,-0.414397929186805,-0.3202461917731632,0.4234142582159773,863.4798534798535,810.6959706959707,793.3699633699634,825.6043956043957,1009.340659340659,-0.098999,0.123962,1.005493,4.583282,-7.155304,-4.837494,1,1,1,1,1,30.000000
2024-10-15 09:33:25.212,,,,,,,,,,,,,,,,,,,,,,,,,,,,,,,,,,,,,,/muse/elements/blink
2024-10-15 09:33:25.575,0.7514377722734851,0.7116651621116279,0.3249124664106924,-0.1068988327963986,0.6897584194880912,0.4051093392372227,0.01903129751619019,-0.318395225130904,0.4755362852889946,0.3647596283037227,0.470009626059802,0.2732903663601567,0.6991786426373209,-0.09966142964033846,-0.05405912212824746,0.2971147507766324,0.3928536946537892,-0.5321519792416238,-0.239762418209031,0.4234142582159773,927.948717948718,794.981684981685,790.5494505494506,823.5897435897436,798.2051282051282,-0.089050,0.123657,1.003967,4.515991,-8.673096,-4.209442,1,2,1,1,2,40.000000
2024-10-15 09:33:26.575,0.7514377722734851,0.2909355648481626,0.3705668951469905,-0.1068988327963986,0.6897584194880912,-0.1313311392476081,-0.04099069653252298,-0.318395225130904,0.4755362852889946,0.0240925026843858,-0.002998727044405233,0.2732903663601567,0.6991786426373209,-0.1044295446424715,-0.08579715051383832,0.2971147507766324,0.3928536946537892,-0.5116812743814364,-0.3269205501786132,0.4234142582159773,812.7106227106227,796.1904761904763,797.3992673992674,840.1098901098901,873.5531135531136,-0.101868,0.119751,1.005188,5.592651,-7.267456,-3.947754,1,2,1,1,2,40.000000
2024-10-15 09:33:26.827,,,,,,,,,,,,,,,,,,,,,,,,,,,,,,,,,,,,,,/muse/elements/blink
2024-10-15 09:33:27.575,0.7514377722734851,0.2641930958401525,0.3596875928776226,-0.1068988327963986,0.6897584194880912,0.1276038339639567,0.08889817207329107,-0.318395225130904,0.4755362852889946,0.05192049496710363,0.008739271911737789,0.2732903663601567,0.6991786426373209,-0.2694312243277432,-0.08136771343672294,0.2971147507766324,0.3928536946537892,-0.5267155110721472,-0.4073081991141382,0.4234142582159773,969.047619047619,792.5641025641025,792.5641025641025,832.8571428571429,909.8168498168499,-0.090027,0.125122,1.002930,5.652466,-8.202057,-3.095398,1,2,1,1,2,40.000000
2024-10-15 09:33:28.215,,,,,,,,,,,,,,,,,,,,,,,,,,,,,,,,,,,,,,/muse/elements/blink
2024-10-15 09:33:28.573,0.7514377722734851,0.4628309686693228,0.1853614693670609,-0.1068988327963986,0.6897584194880912,0.2795549799532113,0.0950594232185604,-0.318395225130904,0.4755362852889946,0.3214240428389942,0.4517402818293154,0.2732903663601567,0.6991786426373209,-0.1275420533798234,-0.1569583395191084,0.2971147507766324,0.3928536946537892,-0.5429089986828708,-0.3104681487585334,0.4234142582159773,925.5311355311355,800.6227106227107,792.967032967033,820.7692307692308,817.1428571428571,-0.095276,0.132507,1.009277,5.121613,-6.093597,-4.052429,1,2,1,1,2,40.000000
2024-10-15 09:33:29.573,0.7514377722734851,0.5598419471231973,0.02901378160784163,-0.1068988327963986,0.6897584194880912,0.3493442616422281,0.1398240134007299,-0.318395225130904,0.4755362852889946,0.3516393806879373,0.4543751861637433,0.2732903663601567,0.6991786426373209,-0.08820974187590361,-0.1432174550111044,0.2971147507766324,0.3928536946537892,-0.4993884847602964,-0.3526408084114991,0.4234142582159773,965.4212454212454,800.6227106227107,786.9230769230769,834.0659340659341,577.3992673992674,-0.172546,0.117493,0.993591,4.568329,-5.248718,-4.530945,1,2,1,1,2,40.000000
2024-10-15 09:33:30.573,1.257696795113056,-0.1968718886453694,-0.03725128877430495,0.9934020081909195,1.111038593299838,0.006537430775455421,-0.3738294876115549,0.4472341278083826,0.8902030721303353,-0.03371843807459964,-0.2188798984056848,0.6439916620400058,0.6742275506513093,-0.214977983073269,-0.191669320938288,0.601475756906361,0.5439138669941603,-0.4783445313285467,-0.327447614605043,0.3450707943928269,820.7692307692308,802.6373626373627,790.952380952381,803.8461538461539,977.9120879120879,-0.165100,0.128235,0.996948,4.658051,-9.248810,-3.558960,1,1,1,1,1,40.000000
2024-10-15 09:33:31.573,1.124597727001461,-0.1115110660485186,-0.2465898452405913,1.094872957761735,1.180305728652566,-0.08244257438456309,-0.2295728880248957,0.7240101752786646,0.753779900217774,0.1631063102748593,0.1404441180265221,0.8391342114117829,0.6575337069644079,-0.07233615230662276,-0.1733771104369339,0.6174120344513861,0.5937617975641889,-0.4623529515304836,-0.3296897819226317,0.4602575510177996,872.7472527472528,798.2051282051282,793.3699633699634,813.5164835164835,784.5054945054945,-0.151733,0.114502,0.998169,3.985138,-8.815155,-4.927216,1,1,1,1,1,40.000000
2024-10-15 09:33:32.573,0.2618967237717141,0.008358912776025617,-0.1452468007654099,0.8792260894746818,0.2583681605646136,-0.2951318238454342,-0.1621354093052316,0.8637598884111604,0.6756282825151848,0.2076518330496073,0.1500346884356763,1.009558488059155,0.609322438648333,-0.1257057761873411,-0.1139626360976727,0.3926413205130528,0.3661638422059472,-0.3687919231752238,-0.5499997025758534,0.4008586836026141,931.978021978022,799.4139194139194,801.4285714285714,837.6923076923077,574.5787545787546,-0.124329,0.116516,1.005798,5.308533,-7.372131,-4.882355,1,1,1,1,1,40.000000
2024-10-15 09:33:33.094,,,,,,,,,,,,,,,,,,,,,,,,,,,,,,,,,,,,,,/muse/elements/blink
2024-10-15 09:33:33.334,,,,,,,,,,,,,,,,,,,,,,,,,,,,,,,,,,,,,,/muse/elements/blink
2024-10-15 09:33:33.575,0.2343880106002216,-0.03458205322134401,-0.1782678979166135,0.1182889381279963,0.3067589820483227,-0.2691837380405962,-0.3938451038871771,0.2522878822992261,0.6339745871060698,0.05931548421473846,-0.1057527695123546,0.2584401755438884,0.5934907116776379,-0.06484628765127678,-0.2195050152324926,0.2553427918404469,0.3755770598959766,-0.4661584337963095,-0.3877615047157683,0.4489297835112148,957.7655677655678,797.8021978021978,799.8168498168499,837.2893772893773,675.3113553113553,-0.118103,0.121582,0.996094,4.381409,-7.723541,-5.188904,1,1,1,1,1,40.000000
2024-10-15 09:33:34.083,,,,,,,,,,,,,,,,,,,,,,,,,,,,,,,,,,,,,,/muse/elements/blink
2024-10-15 09:33:34.575,0.208216209378727,0.498479831933253,0.3136085146083028,-0.008834540681518416,0.3960434293403851,0.2907700151767929,0.2803901171300877,0.244666432299028,0.1493901884675531,0.2217341403300287,0.7189886386041738,-0.1324535531020747,0.5078386307820354,-0.04009065567269825,-0.1050772079551726,0.1419295228906418,0.3741557359139894,-0.3922959249759653,-0.5090075437177062,0.4647872744905716,805.0549450549451,805.0549450549451,786.5201465201466,762.3443223443223,734.1391941391942,-0.101685,0.116943,1.002808,4.605713,-9.181519,-4.575806,1,1,1,1,1,40.000000
2024-10-15 09:33:34.709,,,,,,,,,,,,,,,,,,,,,,,,,,,,,,,,,,,,,,/muse/elements/blink
2024-10-15 09:33:35.575,0.208216209378727,0.4733764165482107,0.2411376151822664,-0.008834540681518416,0.3960434293403851,0.3527432842861192,0.2588809496490659,0.244666432299028,0.1493901884675531,0.2217341403300287,0.7245798691363214,-0.1324535531020747,0.5078386307820354,-0.03880293681516325,-0.06345171057490745,0.1419295228906418,0.3741557359139894,-0.4004339812572899,-0.5373749889173112,0.4647872744905716,899.3406593406594,797.3992673992674,794.1758241758242,811.9047619047619,864.2857142857143,-0.090820,0.123413,1.002625,5.136566,-7.559052,-3.431854,1,1,1,1,1,40.000000
2024-10-15 09:33:36.574,0.2304166825816756,0.1149979388349717,0.08349876276906511,-0.007033316761214336,0.5195682183112387,-0.1186998249219299,-0.1825856600634625,-0.2272522936422433,0.5300498954597059,-0.06829589488063698,-0.03392983084738799,0.3568937375119179,0.5802706768737877,-0.1495673191655982,-0.2408509666576484,0.5100398138158583,0.3700138272043021,-0.6053681868224321,-0.433794721780994,0.5441643966728218,743.8095238095239,798.6080586080586,798.6080586080586,788.5347985347986,932.3809523809524,-0.103943,0.126099,1.003784,4.837494,-5.884247,-3.641205,1,1,1,1,1,40.000000
2024-10-15 09:33:37.574,0.4449674109640619,-0.6456306856897513,-0.1190080141715781,0.2550296885673882,0.6823937333597652,-0.407842499208037,-0.1809280935449159,0.2516993392890499,0.6680778756126005,-0.1304781746056646,-0.1439349607606166,0.5107779212525446,0.6332032543010059,-0.1510606775205448,-0.1486622542342826,0.4119941567398291,0.3040344116967134,-0.7022411844719486,-0.3528928998112666,0.3910366063225376,788.1318681318681,791.7582417582418,790.5494505494506,798.6080586080586,644.6886446886447,-0.085022,0.125916,1.004639,4.231873,-8.299255,-4.942169,1,1,1,1,1,40.000000
2024-10-15 09:33:38.099,,,,,,,,,,,,,,,,,,,,,,,,,,,,,,,,,,,,,,/muse/elements/blink
2024-10-15 09:33:38.574,0.3745748780598693,0.1504818415452642,0.4129391193530734,0.2831061078025097,0.6801398478025973,0.2459578270429574,0.1323462789529685,0.2918765950197292,0.5405700108931187,0.575162228435759,0.1685443282365341,0.5436998225179006,0.6579785988781984,-0.07480604428005998,-0.008624532277256807,0.2854345844329783,0.1548993866785842,-0.5274280417798533,-0.4204369105587271,0.1425303044237979,694.6520146520147,797.8021978021978,788.9377289377289,770,858.2417582417582,-0.093689,0.135315,1.008972,4.702911,-7.402039,-5.787048,1,1,1,1,1,40.000000
2024-10-15 09:33:39.575,0.2540325620028965,0.3546390119413442,0.4705181518490683,-0.07522441114950403,0.5442583756626647,0.3866383826317719,0.1902647586657609,0.1989794632781735,0.4451275079912114,0.5767589715217689,0.1447955446408908,0.4929348199904562,0.5242896001690761,-0.05267779067391132,0.0167704562779772,0.2901336353180448,0.1737862289317749,-0.3900039762854577,-0.4450278301620716,0.1062836771203886,898.1318681318681,796.5934065934066,795.3846153846154,815.1282051282052,691.4285714285714,-0.082886,0.127563,1.000061,5.286102,-6.474915,-4.777679,1,1,1,1,1,40.000000
2024-10-15 09:33:40.574,0.3318386649963473,-0.1903619516462051,-0.03444377308167217,0.2445004599749838,0.09331636473829809,-0.03851847882620092,-0.2816237496707433,0.01037698533492081,0.3389041346943664,-0.08221475691584841,-0.2232973540040742,0.4591072574858462,0.5175858140087916,-0.2880220148484132,-0.1900555315429966,0.3032415407631939,0.07553188474913103,-0.5937356690254434,-0.4251187052790799,0.2507962162881143,761.5384615384615,800.2197802197802,791.7582417582418,789.7435897435897,626.1538461538462,-0.088684,0.136658,1.003906,5.233765,-7.858124,-3.618774,1,1,1,1,1,40.000000
2024-10-15 09:33:41.573,0.2020296039042956,0.408822356613079,-0.1303084797453919,0.2896488214274648,0.68881859543115,0.1201716638684897,-0.1723201740612561,0.3252862798862492,0.7670558423888825,-0.1318001658821151,-0.2529273975333539,0.4950594685261915,0.4607132495916863,-0.2077958028718516,-0.204057627047203,0.2933030553937661,0.2111491400579437,-0.4515175284849322,-0.296449853598213,0.2957495957740675,714.3956043956044,788.1318681318681,803.040293040293,821.5750915750916,746.6300366300367,-0.089844,0.138550,1.004150,4.919739,-7.648773,-4.493561,1,1,1,1,1,40.000000
2024-10-15 09:33:41.701,,,,,,,,,,,,,,,,,,,,,,,,,,,,,,,,,,,,,,/muse/elements/blink
2024-10-15 09:33:42.573,0.2826566977603799,0.4443126007273461,0.442817554926935,0.5153273256026608,0.6296785112388809,0.3432390280802938,0.4480733756304346,0.3374766974785565,0.7217190879120856,0.1034897603088331,0.2167608088041391,-0.05257862377724411,0.2403616379767264,-0.2907051475393781,-0.2128340629139457,0.2112031924170255,0.2285020068974718,-0.3976530257171229,-0.4945677603013571,0.2424512840865217,847.3626373626374,799.0109890109891,796.5934065934066,803.4432234432235,497.6190476190476,-0.077454,0.137695,1.008057,5.263672,-7.088013,-2.631836,1,1,1,1,1,40.000000
2024-10-15 09:33:43.573,0.3076607249501405,0.520898211234859,0.1645800781010175,0.02495352623557955,0.2191540127636602,0.2570096587897294,0.1765394359991786,0.1859550510320588,0.4844107667642085,0.06972849182977031,0.2116931664312541,0.3742880697607464,0.4325016972409307,-0.1478817909079539,-0.2070952342464079,0.238594740289099,-0.08106940724181373,-0.5163202800404697,-0.3926531710864425,0.3657229544304732,722.4542124542124,793.7728937728938,790.1465201465202,777.2527472527473,484.7252747252747,-0.075012,0.140686,1.002686,4.762726,-7.424469,-2.415009,1,1,1,1,1,40.000000
2024-10-15 09:33:43.957,,,,,,,,,,,,,,,,,,,,,,,,,,,,,,,,,,,,,,/muse/elements/blink
2024-10-15 09:33:44.573,0.2216678771834919,0.2232622161801084,0.405807320979607,0.04447345175561434,0.2557559192542477,-0.05792631059689568,0.2403573416934147,-0.006890451322784397,0.4666479073711878,-0.1333522543712551,0.08554449059038,0.3157732040605388,0.4938585272912355,-0.1603874700282466,-0.08080587028379212,0.2293030922573278,-0.03512210335002743,-0.56457752634892,-0.3456296416626533,0.412098218933462,756.3003663003664,794.981684981685,788.5347985347986,781.6849816849817,755.4945054945055,-0.081726,0.127563,0.999146,4.209442,-7.020721,-4.590759,1,1,1,1,1,40.000000
2024-10-15 09:33:45.573,-0.1390620587712163,0.4870343190803992,0.4302527524590374,-0.5223896164469483,-0.07522249204035181,0.07765874090424225,0.2337540149448147,-0.2453092303072964,0.2572716537484708,-0.01969788138937208,0.229573351562525,0.1915925862210453,0.4610693799870996,-0.1586739973523287,-0.1174869500627209,0.2315929813148443,0.1449361813413881,-0.6150063834288586,-0.5775614686052297,0.3628350060469704,793.3699633699634,802.2344322344322,794.5787545787546,794.1758241758242,760.7326007326008,-0.077026,0.137268,1.006348,4.874878,-6.803894,-4.486084,1,1,1,1,1,40.000000
2024-10-15 09:33:45.952,,,,,,,,,,,,,,,,,,,,,,,,,,,,,,,,,,,,,,/muse/elements/blink
2024-10-15 09:33:46.339,,,,,,,,,,,,,,,,,,,,,,,,,,,,,,,,,,,,,,/muse/elements/blink
2024-10-15 09:33:46.573,-0.07113331547596637,1.007839116412328,0.2221729541377153,-0.4010128262380476,-0.03284745636347344,0.2421227348921196,0.1125539998742743,-0.122811781486708,0.2607890793371017,-0.09998148181636979,0.1745785248179044,0.2991968341345193,0.4444549158509895,-0.1098226124430669,-0.1288655275226738,0.2007193277127701,0.1938089543567623,-0.4460593140055794,-0.4743972030963165,0.3012193391201555,676.1172161172161,790.1465201465202,797.3992673992674,765.1648351648352,536.3003663003664,-0.078186,0.136292,1.003967,4.740295,-6.512299,-4.673004,1,1,1,1,1,40.000000
2024-10-15 09:33:47.474,,,,,,,,,,,,,,,,,,,,,,,,,,,,,,,,,,,,,,/muse/elements/blink
2024-10-15 09:33:47.587,-0.05600541350047666,0.7792305829188928,0.3531226776320198,-0.388844921443083,-0.1060325789673841,0.04683585014601929,0.171325643421132,-0.06250872470247074,0.1315197598105797,0.1967921202553796,0.113145155546401,0.2991968341345193,0.489243478482189,-0.01446458681214933,-0.03055232475777513,0.1686710150593347,0.2483842554684108,-0.3154890909198607,-0.1840344523988515,0.1701373981516274,645.8974358974359,792.1611721611722,790.952380952381,765.5677655677656,722.4542124542124,-0.075623,0.135559,1.005554,4.478607,-7.925415,-3.947754,1,1,1,1,1,40.000000
2024-10-15 09:33:48.575,-0.05600541350047666,0.280319639003383,0.3333388009345659,-0.388844921443083,-0.1060325789673841,-0.02035307110601555,0.03628974508959536,-0.06250872470247074,0.1315197598105797,0.2646915102848719,0.03479234916950655,0.2991968341345193,0.489243478482189,0.07843295947053594,0.1168284553685515,0.1686710150593347,0.2483842554684108,-0.2124002435335904,-0.2017506279302192,0.1701373981516274,635.0183150183151,803.4432234432235,803.4432234432235,771.2087912087912,678.1318681318681,-0.080383,0.126038,1.002075,5.196381,-7.013245,-4.052429,1,2,1,1,2,40.000000
2024-10-15 09:33:49.486,0.3024828020127695,0.2840377785613513,-0.1179308538714995,0.1955997562320116,0.0375137262283901,-0.1831690202524554,-0.2562615592197691,-0.2270943527691644,0.6014275275969992,0.09982783251681711,0.02327002615784309,0.1691833337913548,0.6142521991435962,-0.09018187030953508,-0.0127654168533853,0.3545772050947481,0.287489361032217,-0.3680459396671752,-0.3122959554195638,0.1756557173568759,689.8168498168499,798.6080586080586,795.3846153846154,765.1648351648352,726.4835164835165,-0.081055,0.136902,1.005676,4.687958,-7.731018,-4.224396,1,1,1,1,1,40.000000
2024-10-15 09:33:50.516,0.3460011377569701,-0.1042532240931236,-0.4632582645764068,0.04200377894668601,0.1902516705895488,-0.3965043866699635,-0.2955681561143803,0.2372557874550837,0.6503796971127249,-0.000561185140566483,0.04859960968474027,0.4898127953299291,0.5735256735116683,-0.1804453248888443,-0.08626550997921674,0.268164982849201,0.05286385099542249,-0.5905499459587363,-0.2987299413833438,0.2788337554277812,821.978021978022,796.1904761904763,795.3846153846154,818.7545787545788,1036.739926739927,-0.082703,0.129761,0.999268,4.702911,-7.387085,-4.508514,1,1,1,1,1,40.000000
2024-10-15 09:33:51.537,0.4679508894152912,-0.6486316074880994,-0.26655834813345,0.2951399802561409,0.6033942935073218,-0.4207508450360896,-0.1735992246747701,0.5514007560092753,0.9354673198911344,-0.218734867095475,0.1436223249709012,0.6291881995944124,0.4337932372301671,-0.1838636625993736,-0.1176201835487531,0.399434382217548,0.1462420699035018,-0.693741732130427,-0.4927981973698639,0.2028995749567274,783.6996336996338,796.996336996337,790.952380952381,788.1318681318681,860.6593406593407,-0.073853,0.138245,1.003540,5.203857,-6.901093,-4.934692,1,1,1,1,1,40.000000
2024-10-15 09:33:52.175,,,,,,,,,,,,,,,,,,,,,,,,,,,,,,,,,,,,,,/muse/elements/blink
2024-10-15 09:33:52.558,0.1911752199943552,0.341717143915119,0.1893220481282439,0.2483321427321157,0.4406261884115834,-0.1881762429848553,-0.1822341179033114,0.1736176081234343,0.6673447105259002,0.04038624220310568,0.1921048048358207,0.4274788760802113,0.4020730274070078,-0.08863074207494974,-0.07057830849034885,0.2279377877032093,0.06302307820150344,-0.3936382742527601,-0.4717338528105254,0.2452045745992762,920.6959706959707,805.8608058608058,802.6373626373627,838.0952380952381,1059.304029304029,-0.083313,0.134644,1.004089,4.687958,-6.773987,-4.149628,1,1,1,1,1,40.000000
2024-10-15 09:33:53.559,0.2753980844156008,0.3973201930530599,0.3120993652326409,0.1853758355334896,0.5888092833095566,-0.03438288690799396,-0.1551930963066698,0.04792289690048798,0.6193712883959419,0.1492834448210195,0.2032332648289892,0.2965400389238017,0.5037326250019706,0.0502003487656023,-0.06585446838400372,0.05457576359295589,0.1243072932982055,-0.3536721721382904,-0.4170823119386817,0.2381729584691431,879.1941391941392,795.7875457875458,801.025641025641,816.3369963369963,585.8608058608058,-0.076111,0.134155,1.001465,4.874878,-7.820740,-4.605713,1,1,1,1,1,40.000000
2024-10-15 09:33:54.080,,,,,,,,,,,,,,,,,,,,,,,,,,,,,,,,,,,,,,/muse/elements/blink
2024-10-15 09:33:54.573,0.4685238070970218,0.382678100094749,0.2221155328400843,0.1538651048702865,0.4162171765480397,0.03587024195534416,0.09843091651955352,-0.06276561478373915,0.4224759157497676,-0.009544794572530635,0.2275563148322009,-0.01963337833052986,0.6966612958448792,-0.005083853382295357,-0.07199276054078024,0.4219340758885659,0.2677473536528558,-0.419714810560945,-0.4994933072702456,0.5019596654920396,673.6996336996338,794.1758241758242,792.1611721611722,776.8498168498169,818.3516483516484,-0.069458,0.128357,1.003967,4.456177,-7.058105,-3.618774,1,1,1,1,1,40.000000
2024-10-15 09:33:55.572,0.519592656700448,0.5253868640585915,0.3194035438314376,0.1127247859320794,0.4880743240673882,-0.01514784902649864,0.09587752332845717,-0.1000757617218193,0.2807392026898236,0.004395767047309131,0.09459914963165404,-0.06480827314353385,0.7163414178480407,0.005636410278130854,-0.0965658028392887,0.4535619086439547,0.3212507271382296,-0.3651582502353878,-0.3591879016716124,0.4866838203026227,643.8827838827839,794.5787545787546,797.8021978021978,763.956043956044,642.2710622710623,-0.071167,0.142334,1.011475,6.003876,-6.205750,-3.170166,1,1,1,1,1,35.000000
2024-10-15 09:33:56.573,0.007818483971295453,-0.03659388068472112,-0.389105905327399,-0.2226482416225956,0.2259030157358399,-0.1781862680743955,-0.5012300953926049,0.1713561292502793,0.6913756025817877,0.04206087497466168,0.1028285811771156,0.4846831981938575,0.5016473182573451,-0.1020267910439946,-0.1476210553171269,0.2681125665044219,0.2259815991571572,-0.4012182009873486,-0.4038752480327614,0.3700422237857492,632.1978021978022,796.996336996337,797.8021978021978,770.4029304029305,564.9084249084249,-0.072449,0.142090,1.007446,5.061798,-6.848755,-3.753357,1,1,1,1,1,35.000000
2024-10-15 09:33:57.572,0.2824526239630267,-0.08107077088505314,-0.1804448494632913,0.02353288214195095,0.4418880577513114,-0.3305526724013175,-0.2694788660359232,0.3269372401814618,0.5564896796084519,-0.1221393213907349,0.007265506105908081,0.4877655176808414,0.5246914969871854,-0.289527812332351,-0.1722343465185494,0.1730080228194911,0.2974411827704987,-0.4911607297500345,-0.5574058432999411,0.2864529118840519,635.8241758241759,799.8168498168499,802.2344322344322,764.7619047619048,603.992673992674,-0.074524,0.140503,1.004150,4.620667,-7.334747,-4.740295,1,1,1,1,1,35.000000
2024-10-15 09:33:58.493,0.1316756118316083,-0.5027952153364539,-0.01301689560444405,-0.07094083574625652,0.480676348585937,-0.3612873965841876,-0.1862452785897677,0.2869429689695832,0.5134877270711202,0.0444406483766026,0.05734375056993982,0.5806265299279687,0.4998181029382647,-0.3600192975767125,-0.1305915341890659,0.2912306572319955,0.3271231692070304,-0.539654774923967,-0.4842272882042044,0.258108793549198,831.2454212454213,802.2344322344322,782.4908424908425,778.0586080586081,853.8095238095239,-0.077148,0.134277,0.997620,3.738403,-7.005768,-6.310425,1,1,1,1,1,35.000000
2024-10-15 09:33:58.611,,,,,,,,,,,,,,,,,,,,,,,,,,,,,,,,,,,,,,/muse/elements/blink
2024-10-15 09:33:59.495,-0.01269752845823745,0.5368887601913472,0.4329078031411323,-0.3079291324204738,0.3670557595294517,0.07373872528360989,0.1100487768819517,-0.01440823406210223,0.3144592797382018,0.176083294819826,0.09591664401966914,0.3193593621373818,0.2641876714568595,-0.2068174746137898,-0.04410188885786354,0.2700346987153914,0.1657877464644722,-0.4550758539106938,-0.4409619978405892,0.2855211683418883,815.934065934066,799.4139194139194,792.967032967033,801.8315018315019,1319.59706959707,-0.074585,0.128357,1.002441,4.501038,-7.588959,-4.015045,1,1,1,1,1,35.000000
2024-10-15 09:34:00.385,,,,,,,,,,,,,,,,,,,,,,,,,,,,,,,,,,,,,,/muse/elements/blink
2024-10-15 09:34:00.511,0.02881273817530935,0.5826063703715721,0.3735469656529013,-0.3079291324204738,0.3308046965413902,-0.0813609753595846,1.829804848568641e-05,-0.01440823406210223,0.26097815674809,0.235187325351038,0.0302748514761051,0.3193593621373818,0.2625350333114466,-0.1994975814010323,-0.1497160695131799,0.2700346987153914,0.1342808569288887,-0.5991351271117759,-0.6210795118411295,0.2855211683418883,938.021978021978,784.5054945054945,800.2197802197802,821.5750915750916,848.5714285714286,-0.082336,0.118774,1.002075,4.987030,-6.430054,-4.942169,1,1,1,1,1,35.000000
2024-10-15 09:34:00.883,,,,,,,,,,,,,,,,,,,,,,,,,,,,,,,,,,,,,,/muse/elements/blink
2024-10-15 09:34:01.515,0.02881273817530935,1.069421851949497,1.020532410603423,-0.3079291324204738,0.3308046965413902,0.7673429010259162,0.7347873045252588,-0.01440823406210223,0.26097815674809,0.695001746045286,0.9214712643364213,0.3193593621373818,0.2625350333114466,-0.01030701735701168,0.08114998353908445,0.2700346987153914,0.1342808569288887,-0.4708970139744972,-0.4068686691101219,0.2855211683418883,900.5494505494506,796.1904761904763,788.5347985347986,808.2783882783883,898.5347985347986,-0.085388,0.120422,1.006226,4.284210,-6.347809,-5.375824,1,2,1,1,2,35.000000
2024-10-15 09:34:01.762,,,,,,,,,,,,,,,,,,,,,,,,,,,,,,,,,,,,,,/muse/elements/blink
2024-10-15 09:34:02.512,0.02881273817530935,0.8953127428126961,0.7877634250826913,-0.3079291324204738,0.3308046965413902,0.7441431388160323,0.6150360674203412,-0.01440823406210223,0.26097815674809,0.6034567742654758,0.9334858118954712,0.3193593621373818,0.2625350333114466,0.03220670269434629,0.01600439196265497,0.2700346987153914,0.1342808569288887,-0.4310827253038853,-0.3405103583979614,0.2855211683418883,964.6153846153846,798.2051282051282,799.0109890109891,821.1721611721612,918.6813186813187,-0.075989,0.120300,1.011597,5.540314,-5.757141,-3.850555,1,2,1,1,2,35.000000
2024-10-15 09:34:03.514,0.4221873633545014,0.6538909215314561,0.4139258860822884,0.5965583977866481,0.792304611984216,0.317563126871638,0.01316651534362349,0.3484491706440814,0.8940034330857494,0.3634974813930031,0.2702385945362524,0.5781575577509307,0.6869992677386103,0.06361326591797244,-0.07966782277691319,0.6696196289996565,0.5165621267072394,-0.5197774467017998,-0.2924948223947202,0.4514615808378972,973.4798534798535,796.996336996337,796.996336996337,846.959706959707,944.8717948717949,-0.093872,0.124329,1.005920,5.166473,-8.097382,-2.953339,1,1,1,1,1,35.000000
2024-10-15 09:34:04.011,,,,,,,,,,,,,,,,,,,,,,,,,,,,,,,,,,,,,,/muse/elements/blink
2024-10-15 09:34:04.497,0.3630870233918486,0.05570808512109946,-0.0750248360122613,0.5278751905309983,0.6848030583503513,-0.115644350619287,0.02074977948754276,0.2691189696419076,0.8940034330857494,0.09121723914599929,-0.1072851478788949,0.5811956733214642,0.6396920625489894,-0.02194798744362546,-0.0155138998212744,0.595085050755321,0.498932014691165,-0.5238231577351899,-0.332009293429936,0.4343056652147103,959.3772893772895,799.0109890109891,801.8315018315019,826.007326007326,682.1611721611722,-0.088135,0.124023,1.004395,4.082336,-7.805786,-4.934692,1,1,1,1,1,35.000000
2024-10-15 09:34:05.508,0.4034484799450635,0.1753304109691795,-0.01496330192550675,-0.1734903671086914,0.1823889227040453,-0.04488674208630849,0.07541637021893068,-0.1118753043034641,0.5086781854209202,0.1008134094300948,-0.07596555909688822,-0.1158722699385532,0.3618086718842377,-0.04793779101633715,-0.2608095317608101,0.3847032034418229,0.4316274029788889,-0.5503396330086803,-0.6067673602545902,-0.2690918054411902,916.6666666666667,796.1904761904763,798.2051282051282,824.7985347985348,1018.205128205128,-0.081238,0.132080,1.002075,4.949646,-6.534729,-4.620667,1,1,1,1,1,35.000000
2024-10-15 09:34:06.144,,,,,,,,,,,,,,,,,,,,,,,,,,,,,,,,,,,,,,/muse/elements/blink
2024-10-15 09:34:06.539,0.390142824078277,0.4990371268230798,0.4641830292024653,-0.1772496233351705,0.6484170928897949,-0.08670961157855135,-0.08032834410650604,-0.1241819810336871,0.5334498471706953,0.1640249822070389,0.01747615101758061,-0.0961116022215623,0.4904142663009105,-0.1899739159069288,-0.1736307557917547,0.4127448150743327,0.3867929376469682,-0.5325154433962138,-0.4890157907255303,-0.1249286267086141,808.6813186813187,799.0109890109891,794.1758241758242,806.2637362637363,886.8498168498169,-0.080017,0.131409,1.007690,4.493561,-7.529144,-3.529053,1,1,1,1,1,35.000000
2024-10-15 09:34:07.556,0.3764165983409616,0.5333802857923663,0.5062709624085604,-0.2311864215433387,0.8680128139626846,-0.1769520523928872,-0.006976197854339709,-0.1584344065088804,0.4024462762907197,-0.09510116083454451,0.09204086644366813,-0.3718890618722095,0.5895096245173652,-0.1604107786292709,-0.03995938163397056,0.4279156958220821,0.3367914448517509,-0.493366965560809,-0.5222766002517502,-0.03654558140757647,838.4981684981685,805.0549450549451,800.6227106227107,807.4725274725275,793.3699633699634,-0.068604,0.120361,1.000854,4.815063,-6.691742,-3.805695,1,1,1,1,1,35.000000
2024-10-15 09:34:07.953,,,,,,,,,,,,,,,,,,,,,,,,,,,,,,,,,,,,,,/muse/elements/blink
2024-10-15 09:34:08.574,0.4813479452410214,-0.06779215561799809,0.04074645914259824,0.6740016630076957,0.4137883737679225,-0.1491645233875854,-0.1223117775971878,0.0104106228485101,0.2105991515569116,0.3225378428136746,-0.05419220649599357,-0.1396437040776987,0.1854583631216754,-0.1550071133184185,-0.03987380436774568,0.1948620752742222,0.1405201208694795,-0.5620988120121445,-0.5205141984968691,0.1997083143367481,966.6300366300367,796.1904761904763,792.5641025641025,829.2307692307693,1120.952380952381,-0.071289,0.137024,1.006165,4.142151,-6.213226,-5.689850,1,1,1,1,1,35.000000
2024-10-15 09:34:09.579,0.1163581200834902,0.231600405331377,0.1451387319997937,0.07649079564393794,0.4992925386429468,-0.09612502897140278,-0.04919673917927354,0.438694832035914,0.4562247775316374,0.3567662575960966,0.0122975478535392,0.486273333940893,0.5323993243166741,-0.1740068513211454,0.003348525508884754,0.5958237738394094,0.2073520914364123,-0.5211136011074262,-0.401419595482949,0.4424080799952833,727.2893772893773,794.981684981685,804.2490842490843,791.7582417582418,848.974358974359,-0.073792,0.135376,1.003296,4.710388,-7.177734,-4.545898,1,1,1,1,1,35.000000
2024-10-15 09:34:10.498,0.2973057375170233,0.2744928052333276,0.009917273840290638,0.1044119958793379,0.4282994055240101,-0.2053935497047917,-0.3189665339248404,0.3244844978276084,0.5285318608825006,-0.175878028296918,0.05360206224589009,0.5098992476954265,0.5179184147220587,-0.2213125976313402,-0.02656669789914629,0.5177093970974626,0.1520294903360215,-0.5534912656250405,-0.4305935934662469,0.5431462076498164,943.6630036630037,778.0586080586081,795.7875457875458,823.5897435897436,913.4432234432235,-0.070190,0.129578,1.005798,4.934692,-7.506714,-4.329071,1,1,1,1,1,35.000000
2024-10-15 09:34:11.044,,,,,,,,,,,,,,,,,,,,,,,,,,,,,,,,,,,,,,/muse/elements/blink
2024-10-15 09:34:11.525,0.4806996049706623,0.9689017714798935,0.00014789462193731,-0.005842697448957324,0.2926514708020639,0.2774773087292453,-0.1052774513608856,-0.04199909328564484,0.2567465539983396,0.4137850734981006,-0.03408473736353158,0.2914185400750103,0.4668232834307579,-0.2587737963285114,-0.07464803080108416,0.4366599418552719,0.1102756403398125,-0.5470443579399732,-0.2739095580977998,0.562124622069379,815.5311355311355,790.952380952381,793.7728937728938,804.2490842490843,774.8351648351648,-0.067810,0.124756,1.008240,5.076752,-7.110443,-4.291687,1,1,1,1,1,35.000000
2024-10-15 09:34:12.054,,,,,,,,,,,,,,,,,,,,,,,,,,,,,,,,,,,,,,/muse/elements/blink
2024-10-15 09:34:12.555,0.5679298411872211,1.313498623822278,0.8314793725338007,-0.1481820278897491,0.4056905517247303,0.7672123094605316,0.7622509181325455,-0.0009016416200325815,0.2176215328567236,0.8819662188180175,0.7275379446333435,0.1930520134450969,0.3953213233341485,-0.03045274300409566,-0.01367274423303186,0.4709062176938387,0.130021542730023,-0.5999483573299994,-0.2266799209668409,0.5536437081363859,729.3040293040293,796.996336996337,806.2637362637363,836.8864468864469,818.3516483516484,-0.074097,0.118652,1.000793,4.777679,-7.850647,-4.807587,1,1,1,1,1,35.000000
2024-10-15 09:34:12.666,,,,,,,,,,,,,,,,,,,,,,,,,,,,,,,,,,,,,,/muse/elements/blink
2024-10-15 09:34:13.278,,,,,,,,,,,,,,,,,,,,,,,,,,,,,,,,,,,,,,/muse/elements/blink
