TimeStamp,Delta_TP9,Delta_AF7,Delta_AF8,Delta_TP10,Theta_TP9,Theta_AF7,Theta_AF8,Theta_TP10,Alpha_TP9,Alpha_AF7,Alpha_AF8,Alpha_TP10,Beta_TP9,Beta_AF7,Beta_AF8,Beta_TP10,Gamma_TP9,Gamma_AF7,Gamma_AF8,Gamma_TP10,RAW_TP9,RAW_AF7,RAW_AF8,RAW_TP10,AUX_RIGHT,Accelerometer_X,Accelerometer_Y,Accelerometer_Z,Gyro_X,Gyro_Y,Gyro_Z,HeadBandOn,HSI_TP9,HSI_AF7,HSI_AF8,HSI_TP10,Battery,Elements
2024-10-15 09:28:20.671,,,,,,,,,,,,,,,,,,,,,,,,,,,,,,,,,,,,,,/muse/event/connected Muse-19E7
2024-10-15 09:28:20.956,,,,,,,,,,,,,,,,,,,,,,,,,,,,,,,,,,,,,,/muse/elements/blink
2024-10-15 09:28:21.672,0.637900329684682,0.1541391887330905,0.8606898384554363,1.070848786977737,0.5538427643165009,0.140869172904082,0.3442055964959308,0.9753764457682391,0.4360573131123099,0.434250076882952,0.5647648750120683,0.4001615381243475,0.3203914836806366,-0.1336977735793817,0.05394682201813918,0.2054048780910083,-0.006219766656800132,-0.48922014732545,-0.4007702573721551,0.3543523413106522,598.3516483516484,797.3992673992674,790.1465201465202,744.2124542124542,739.7802197802198,-0.180054,0.097778,0.994934,5.286102,-5.824432,-4.448700,1,1,1,1,1,35.000000
2024-10-15 09:28:22.271,,,,,,,,,,,,,,,,,,,,,,,,,,,,,,,,,,,,,,/muse/elements/blink
2024-10-15 09:28:22.672,0.637900329684682,0.7025376878119804,1.115935224177483,1.070848786977737,0.5538427643165009,0.5874939209420256,0.6661647919904525,0.9753764457682391,0.4360573131123099,0.5709227894307569,0.5264262025315013,0.4001615381243475,0.3203914836806366,-0.05359555641959023,-0.06095463427637839,0.2054048780910083,-0.006219766656800132,-0.4372419325000516,-0.3167718689450881,0.3543523413106522,622.9304029304029,793.7728937728938,786.5201465201466,745.0183150183151,799.4139194139194,-0.179749,0.099609,0.993835,4.889832,-7.760925,-4.388885,1,1,1,1,1,35.000000
2024-10-15 09:28:23.672,0.637900329684682,0.5450579739453111,0.9037845424906977,1.070848786977737,0.5538427643165009,0.4433244423585866,0.5760567401611049,0.9753764457682391,0.4360573131123099,0.5644130661011961,0.2578696497778505,0.4001615381243475,0.3203914836806366,-0.08005435983571002,-0.1667701170154547,0.2054048780910083,-0.006219766656800132,-0.4961815479864153,-0.4516424800441111,0.3543523413106522,705.5311355311355,794.981684981685,796.996336996337,783.6996336996338,666.4468864468864,-0.185791,0.099304,0.992493,5.046844,-6.280518,-4.216919,1,2,1,1,2,35.000000
2024-10-15 09:28:24.673,0.637900329684682,0.794977744194138,0.877976776753989,1.070848786977737,0.5538427643165009,0.4643466013287895,0.5880969015437837,0.9753764457682391,0.4360573131123099,0.3349567969769212,0.3996774174492826,0.4001615381243475,0.3203914836806366,-0.1915822807453637,-0.209224998468526,0.2054048780910083,-0.006219766656800132,-0.4711431602563902,-0.4113665320454131,0.3543523413106522,607.6190476190476,785.7142857142858,794.981684981685,757.1062271062272,660.4029304029305,-0.175049,0.101868,1.000000,5.345917,-7.327271,-4.029999,1,2,1,1,2,40.000000
2024-10-15 09:28:25.672,0.637900329684682,0.9015451635397915,1.139191057510434,1.070848786977737,0.5538427643165009,0.4234052855392885,0.7141535118759748,0.9753764457682391,0.4360573131123099,0.3419821642702849,0.5279818836452219,0.4001615381243475,0.3203914836806366,-0.08142075227046364,0.05217974768155561,0.2054048780910083,-0.006219766656800132,-0.4887183723457966,-0.2489783330059088,0.3543523413106522,628.1684981684982,784.5054945054945,786.1172161172161,751.8681318681319,655.9706959706959,-0.188354,0.092529,0.991028,5.076752,-8.127289,-3.215027,1,2,1,1,2,40.000000
2024-10-15 09:28:26.672,0.2240493602660274,0.1889342109073315,0.1401024477707316,0.1212364999085515,0.4623591916902566,-0.1720455517700217,-0.0577835193339882,0.2411181624222666,0.6141420814019876,0.05686294013718157,0.4066876572724286,0.4334899045568409,0.4556062443591973,-0.07168876192319502,0.08223261600441449,0.280774858173291,0.1738647605051908,-0.5522130572442998,-0.3015841186417468,0.1962372385066172,710.7692307692308,787.7289377289378,790.1465201465202,771.6117216117216,532.6739926739926,-0.184753,0.098083,1.000427,4.904785,-7.611389,-4.284210,1,1,1,1,1,40.000000
2024-10-15 09:28:27.681,0.305018205566238,-0.5055293897677379,-0.3282993803623358,0.1929195550116253,0.4241472766584894,-0.4613797689706572,-0.2152713324776105,0.3736341968030796,0.595935887598547,-0.1346807954304135,0.1390387986910334,0.5798607313473798,0.4678164878275177,-0.3253324561069736,-0.2659984723241695,0.08368536441149647,0.2081825472205184,-0.6318752260791484,-0.4797170657327633,0.1757367341776891,599.5604395604396,791.7582417582418,788.5347985347986,747.032967032967,950.9157509157509,-0.172791,0.103027,0.995667,4.770203,-7.274933,-4.209442,1,1,1,1,1,40.000000
2024-10-15 09:28:28.356,,,,,,,,,,,,,,,,,,,,,,,,,,,,,,,,,,,,,,/muse/elements/blink
2024-10-15 09:28:28.672,0.4320925418496322,-0.1510205978858015,-0.2332719262713212,0.2037239597288902,0.3865594624310371,-0.2629070649589421,-0.2282466998152046,0.505960307246168,0.7126532476608156,-0.02854905115221491,0.163177230037794,0.7222872149336822,0.4499806893539962,-0.3951488770002371,-0.1921383238130449,0.1966236474160743,0.03725173448242045,-0.5557029058844337,-0.4855276606626489,0.3432070740386678,670.8791208791209,791.3553113553114,790.5494505494506,771.6117216117216,656.7765567765568,-0.174561,0.104736,0.997192,5.046844,-7.364655,-4.134674,1,1,1,1,1,40.000000
2024-10-15 09:28:29.672,0.4384448731976797,-0.05227894326993879,-0.01224348896091851,0.2520211767364358,0.3682096096253424,-0.4364054873434083,-0.1516841893271385,0.727054023164197,0.6648324130821378,0.1140408917630225,0.121876182375509,0.7160663456883528,0.4318993036638938,-0.2638432922047088,-0.03210210595613076,0.3849892309294387,0.03204197937085829,-0.5979893557731996,-0.4845380806976152,0.3202060504589515,990.4029304029305,794.1758241758242,796.5934065934066,856.2271062271062,695.4578754578755,-0.163696,0.105103,0.990540,4.732819,-8.059998,-5.226288,1,1,1,1,1,40.000000
2024-10-15 09:28:30.320,,,,,,,,,,,,,,,,,,,,,,,,,,,,,,,,,,,,,,/muse/elements/blink
2024-10-15 09:28:30.706,0.2500474650012481,0.2306431703350086,0.1476237622540666,0.4993253827113795,0.4341042726100992,-0.3445326116993602,-0.1126950372142526,0.4714704387260375,0.7066531757963279,0.08220095060505998,0.2579660645963662,0.6846191057696808,0.3404232893239608,0.01306086313027672,-0.1257560034464565,0.1638606790711932,-0.09290381300891372,-0.5454398371537958,-0.3696715464011044,0.4305337048389729,622.5274725274726,795.7875457875458,784.9084249084249,778.0586080586081,917.0695970695971,-0.155945,0.106995,1.002319,4.605713,-6.145935,-5.196381,1,1,1,1,1,40.000000
2024-10-15 09:28:31.322,,,,,,,,,,,,,,,,,,,,,,,,,,,,,,,,,,,,,,/muse/elements/blink
2024-10-15 09:28:31.599,,,,,,,,,,,,,,,,,,,,,,,,,,,,,,,,,,,,,,/muse/elements/blink
2024-10-15 09:28:31.679,0.1200359627789851,0.4065849096147364,0.3975951769479089,0.418521683644979,0.3422782779222777,0.1623868569089325,0.08557546203199665,0.3556392068945991,0.3352517496955399,0.299831701587446,0.3227682769234219,0.6127792572522985,0.2627579671402702,-0.004051130027773975,-0.03081808682956895,0.1066262189112981,-0.1527196784911245,-0.4151701844993916,-0.3865848310346008,0.4659914807689987,738.5714285714286,780.4761904761905,793.3699633699634,810.2930402930403,634.2124542124542,-0.149780,0.104736,0.998718,5.001984,-7.058105,-4.747772,1,1,1,1,1,40.000000
2024-10-15 09:28:32.673,0.1200359627789851,0.5406434704160783,0.6613174613130652,0.418521683644979,0.3422782779222777,0.4070248068515058,0.240575020587794,0.3556392068945991,0.3352517496955399,0.3031435089406215,0.3909405010031008,0.6127792572522985,0.2627579671402702,-0.1612987815490949,-0.06597001560157126,0.1066262189112981,-0.1527196784911245,-0.3720363510892768,-0.3704270452306169,0.4659914807689987,724.8717948717949,811.0989010989011,775.6410256410256,724.4688644688645,667.2527472527473,-0.146118,0.108276,0.999939,4.508514,-7.693634,-5.368347,1,1,1,1,1,40.000000
2024-10-15 09:28:32.951,,,,,,,,,,,,,,,,,,,,,,,,,,,,,,,,,,,,,,/muse/elements/blink
2024-10-15 09:28:33.546,,,,,,,,,,,,,,,,,,,,,,,,,,,,,,,,,,,,,,/muse/elements/blink
2024-10-15 09:28:33.672,0.1200359627789851,0.4654418438048054,0.4900678934362624,0.418521683644979,0.3422782779222777,0.2318203786373687,0.1730694181974522,0.3556392068945991,0.3352517496955399,0.1692075490821313,0.291184760562846,0.6127792572522985,0.2627579671402702,-0.1729111897737611,-0.09171496663545606,0.1066262189112981,-0.1527196784911245,-0.3608425544974799,-0.5667803216083419,0.4659914807689987,665.6410256410256,794.5787545787546,782.0879120879121,780.4761904761905,887.6556776556777,-0.136841,0.112732,1.002319,5.144043,-6.654358,-4.179535,1,2,1,1,2,40.000000
2024-10-15 09:28:34.672,0.1200359627789851,0.161714485561299,0.06451178502234281,0.418521683644979,0.3422782779222777,0.04482226946284083,-0.1675975182712174,0.3556392068945991,0.3352517496955399,-0.01793131311657358,0.08936038729357339,0.6127792572522985,0.2627579671402702,-0.1899807201706836,-0.09313849249759806,0.1066262189112981,-0.1527196784911245,-0.5490189679721555,-0.4746603633934462,0.4659914807689987,756.3003663003664,790.1465201465202,785.3113553113553,784.5054945054945,719.2307692307693,-0.140747,0.109741,0.995789,4.815063,-6.302948,-4.261780,1,2,1,1,2,40.000000
2024-10-15 09:28:35.672,0.518230168455015,-0.3502055357697621,-0.538279554104744,0.1806241834785536,0.1961987270314159,-0.3254051305391599,-0.4086914410030456,-0.09189926336384981,0.5453117235327829,-0.2424166309199792,0.0408034940389151,0.2988259868917767,0.3220574190516484,-0.2101938646915182,-0.1621791710923812,0.382951349151301,0.09869085510810516,-0.6017358547083699,-0.5951289052190794,0.3523013976510392,628.1684981684982,789.7435897435897,786.9230769230769,764.3589743589744,703.1135531135532,-0.138489,0.115173,0.999756,4.830017,-7.304840,-4.201965,1,1,1,1,1,35.000000
2024-10-15 09:28:36.681,0.6798852454045791,-0.2271954200565234,-0.5739510524416737,0.3022262833807788,0.4609178262147006,-0.2238412834490837,-0.4747217980561806,0.1823137619858022,0.6514985172022189,0.1037246199495922,-0.01004503252204371,0.4800721688028396,0.303613273440635,-0.1949646505004066,-0.2507855518617002,0.4135150750351173,0.147031916537493,-0.5267214629749774,-0.5798520036655234,0.3053992497480182,701.5018315018315,794.5787545787546,797.8021978021978,792.1611721611722,694.2490842490843,-0.132812,0.117737,1.004822,6.026306,-7.259979,-4.000092,1,1,1,1,1,35.000000
2024-10-15 09:28:36.967,,,,,,,,,,,,,,,,,,,,,,,,,,,,,,,,,,,,,,/muse/elements/blink
2024-10-15 09:28:37.680,0.5232818359597234,-0.1852343667250047,0.1258579560031952,0.2218932132964979,0.4746715609064756,-0.3080044436706341,-0.07336969960200124,0.1286111126200976,0.2228737762259554,0.1254923881449699,0.0776871306652844,0.3164091640108044,0.2726354266739431,-0.08199940830011529,-0.1714531417341084,0.3724420793104142,0.2736478300146103,-0.6400498490028703,-0.4814333570380799,0.04917559413628249,805.0549450549451,790.5494505494506,786.1172161172161,807.8754578754579,677.7289377289377,-0.137207,0.120178,1.002991,4.568329,-6.968384,-4.770203,1,1,1,1,1,35.000000
2024-10-15 09:28:38.284,,,,,,,,,,,,,,,,,,,,,,,,,,,,,,,,,,,,,,/muse/elements/blink
2024-10-15 09:28:38.671,0.5415457529834011,0.04441179853400791,0.2139734323274775,0.3219585855959345,0.4985960937635893,0.02378453382571431,0.03523964277084059,0.1201705887397262,0.09588923089723901,0.09771624707262948,0.1017374032668728,0.1536018415548817,0.2917431687079179,-0.04120631884269835,-0.1129787886661109,0.2996047572299442,0.2541798768146336,-0.5839050752423308,-0.4443679611478491,0.004691527578029799,933.992673992674,790.952380952381,792.5641025641025,869.92673992674,635.0183150183151,-0.139160,0.112549,1.000122,4.807587,-6.175842,-4.942169,1,1,1,1,1,35.000000
2024-10-15 09:28:38.713,,,,,,,,,,,,,,,,,,,,,,,,,,,,,,,,,,,,,,/muse/elements/blink
2024-10-15 09:28:39.672,0.5415457529834011,0.5381141893810648,0.4449123051253168,0.3219585855959345,0.4985960937635893,0.3922588344411456,0.2260247954188759,0.1201705887397262,0.09588923089723901,0.1509674645176224,-0.005826947073688732,0.1536018415548817,0.2917431687079179,-0.2119264650669732,-0.1520846400939306,0.2996047572299442,0.2541798768146336,-0.4283403748842603,-0.392488660834188,0.004691527578029799,732.5274725274726,792.1611721611722,786.1172161172161,802.6373626373627,945.6776556776557,-0.132019,0.112427,0.999023,4.560852,-7.888031,-5.061798,1,2,1,1,2,35.000000
2024-10-15 09:28:40.631,,,,,,,,,,,,,,,,,,,,,,,,,,,,,,,,,,,,,,/muse/elements/blink
2024-10-15 09:28:40.672,-0.1444202518350247,-0.009423741269654501,-0.03198269029011426,-0.2780244805390413,0.3552274699914677,-0.1198725714726451,-0.1475225628085438,0.2041247425407237,0.3967312740570654,-0.03560273620290619,0.07828718674006864,0.1568148300260782,0.1168258931865652,-0.1855389809086918,-0.1071484709387888,0.2558730517045996,-0.1298845758151281,-0.3011667740139297,-0.4892338072368355,0.4839314812549793,848.1684981684982,790.952380952381,786.5201465201466,809.0842490842491,753.0769230769231,-0.133545,0.111023,0.995911,5.316010,-7.020721,-4.134674,1,1,1,1,1,35.000000
2024-10-15 09:28:41.590,,,,,,,,,,,,,,,,,,,,,,,,,,,,,,,,,,,,,,/muse/elements/blink
2024-10-15 09:28:41.672,-0.192876592118423,-0.01736887652799121,0.1587727723200929,-0.2621365854945069,0.4856379880130865,-0.2742120791278331,0.04043796671402959,0.2324208507451012,0.3855241840711788,-0.2722014532659054,0.1203188128575833,0.1031754082377069,0.06478698682504934,-0.1092225828489115,-0.2072970070386273,0.2815387237696392,-0.1966225030164997,-0.5240546265199317,-0.494226889108365,0.5007896443810635,927.948717948718,795.7875457875458,791.7582417582418,829.6336996336996,810.6959706959707,-0.131287,0.120483,1.002258,4.859924,-6.788940,-4.830017,1,1,1,1,1,35.000000
2024-10-15 09:28:42.672,-0.192876592118423,-0.08079698852410597,0.129419245211629,-0.2621365854945069,0.4856379880130865,-0.6491513866992518,-0.1322778579121112,0.2324208507451012,0.3855241840711788,-0.08127601108644016,0.1227535354641779,0.1031754082377069,0.06478698682504934,-0.1313369080040522,-0.1146048516183667,0.2815387237696392,-0.1966225030164997,-0.6631189408280099,-0.5038657828217172,0.5007896443810635,801.025641025641,787.7289377289378,796.5934065934066,830.4395604395604,779.6703296703297,-0.132690,0.114746,0.995544,5.188904,-6.706696,-3.820648,1,1,1,1,1,35.000000
2024-10-15 09:28:42.696,,,,,,,,,,,,,,,,,,,,,,,,,,,,,,,,,,,,,,/muse/elements/blink
2024-10-15 09:28:43.682,-0.192876592118423,0.3901283416006283,0.5427912322182171,-0.2621365854945069,0.4856379880130865,0.2013631476836837,0.1980190908573395,0.2324208507451012,0.3855241840711788,0.3275726102947794,0.4584052491890059,0.1031754082377069,0.06478698682504934,-0.1588995818756575,0.06716303686713482,0.2815387237696392,-0.1966225030164997,-0.4294398526812694,-0.3317803952857357,0.5007896443810635,870.3296703296703,790.5494505494506,783.6996336996338,805.8608058608058,801.8315018315019,-0.135315,0.120605,0.999268,4.755249,-8.261871,-4.209442,1,2,1,1,2,35.000000
2024-10-15 09:28:44.671,0.6370107539231942,0.2126905175830069,0.294335914991633,-0.07022376934362536,0.4521506172165851,-0.006048696922699828,0.03306916942625698,0.3303908826362939,0.3673293272995473,0.129617661382307,0.3307865976751028,0.3727892100636482,0.2310101051116467,-0.182847239428327,-0.1576664903397255,0.1968034530925827,0.09539567274371337,-0.5604478224855642,-0.3770330410193807,0.2949844621888624,949.3040293040293,796.1904761904763,789.3406593406594,837.6923076923077,898.5347985347986,-0.133118,0.118530,0.995667,4.747772,-7.297363,-4.194489,1,1,1,1,1,35.000000
2024-10-15 09:28:45.672,0.6596876392260519,0.1386012615819761,0.07803381815521152,-0.1063919574337679,0.5975997384264602,-0.2072500777808517,0.1125883259446332,0.3551349765888719,0.4494511258306558,0.03425263066397109,0.1901630907125313,0.5478410137617097,0.1742660537288324,-0.08994884313329063,-0.2621451021537369,0.2382120778538492,-0.004858718715213485,-0.5531768721858695,-0.460323551723843,0.3035596204502941,689.0109890109891,800.6227106227107,776.8498168498169,716.007326007326,963.8095238095239,-0.129272,0.127258,0.997314,4.687958,-6.848755,-4.082336,1,1,1,1,1,40.000000
2024-10-15 09:28:45.848,,,,,,,,,,,,,,,,,,,,,,,,,,,,,,,,,,,,,,/muse/elements/blink
2024-10-15 09:28:46.678,0.5396593101678444,0.2406662363435438,0.1166022936174112,-0.2513107137022971,0.5389581351413991,0.03833343680361048,0.04025644247597955,-0.18583862738869,0.2078821395076663,0.3525580997587651,0.1679144051262238,0.4547117340521223,0.01863724890124396,-0.2082698877328487,-0.06284700091083888,0.2061116855058239,-0.07764452405555122,-0.5915682534171518,-0.3867119127938965,0.1363337356892073,882.8205128205128,789.7435897435897,786.5201465201466,813.1135531135532,778.0586080586081,-0.134277,0.123108,0.999146,4.964600,-6.803894,-4.418793,1,1,1,1,1,40.000000
2024-10-15 09:28:47.147,,,,,,,,,,,,,,,,,,,,,,,,,,,,,,,,,,,,,,/muse/elements/blink
2024-10-15 09:28:47.672,0.5198080986979881,0.240573865443874,0.1360344620550903,-0.1934254310757606,0.5396755532894802,0.04539725740460299,0.03633257127662177,-0.2082209905523931,0.1576788970634322,0.3092539381703597,0.156005973371709,0.4547117340521223,-0.01214419285597446,-0.322074164249971,-0.1611259563788277,0.1863186828088007,-0.06703592477309901,-0.6859733488418949,-0.5158303914437199,0.1055295949124076,951.7216117216118,799.0109890109891,777.6556776556777,821.1721611721612,745.4212454212454,-0.130676,0.127319,1.001526,4.553375,-7.237549,-4.291687,1,1,1,1,1,40.000000
2024-10-15 09:28:48.070,,,,,,,,,,,,,,,,,,,,,,,,,,,,,,,,,,,,,,/muse/elements/blink
2024-10-15 09:28:48.514,,,,,,,,,,,,,,,,,,,,,,,,,,,,,,,,,,,,,,/muse/elements/blink
2024-10-15 09:28:48.679,0.5198080986979881,0.4101991814443308,0.4856041423618098,-0.1934254310757606,0.5396755532894802,0.2483161651633021,0.430519217212396,-0.2082209905523931,0.1576788970634322,0.1664198829535317,0.3480470853621242,0.4547117340521223,-0.01214419285597446,-0.09403676910775395,-0.1688791485033292,0.1863186828088007,-0.06703592477309901,-0.55756615115454,-0.4172660794390583,0.1055295949124076,826.8131868131868,790.1465201465202,783.2967032967033,811.5018315018315,894.5054945054945,-0.120850,0.128113,1.000977,4.321594,-7.200165,-3.372040,1,2,1,1,2,40.000000
2024-10-15 09:28:49.678,0.5198080986979881,0.3016740550795523,0.3889726108147116,-0.1934254310757606,0.5396755532894802,0.1013405137483356,0.4010984311606482,-0.2082209905523931,0.1576788970634322,0.1483813980179231,0.3397595874990562,0.4547117340521223,-0.01214419285597446,-0.1670817934148754,-0.1043655662136393,0.1863186828088007,-0.06703592477309901,-0.6697674271127491,-0.4561425574563968,0.1055295949124076,941.6483516483516,792.5641025641025,792.1611721611722,854.6153846153846,655.9706959706959,-0.125427,0.122925,0.994263,4.687958,-5.592651,-4.882355,1,2,1,1,2,40.000000
2024-10-15 09:28:49.818,,,,,,,,,,,,,,,,,,,,,,,,,,,,,,,,,,,,,,/muse/elements/blink
2024-10-15 09:28:50.115,,,,,,,,,,,,,,,,,,,,,,,,,,,,,,,,,,,,,,/muse/elements/blink
2024-10-15 09:28:50.671,0.5198080986979881,0.9445402276946515,0.8462040599851174,-0.1934254310757606,0.5396755532894802,0.7908338302832658,0.5409250197815043,-0.2082209905523931,0.1576788970634322,0.6411702625497218,0.364933007891676,0.4547117340521223,-0.01214419285597446,-0.1559927638835441,-0.1278505131341773,0.1863186828088007,-0.06703592477309901,-0.5439424412319241,-0.4377807959189196,0.1055295949124076,965.0183150183151,793.3699633699634,790.952380952381,837.6923076923077,574.981684981685,-0.123535,0.126160,1.001343,5.099182,-7.192688,-3.297272,1,2,1,1,2,40.000000
2024-10-15 09:28:51.338,,,,,,,,,,,,,,,,,,,,,,,,,,,,,,,,,,,,,,/muse/elements/blink
2024-10-15 09:28:51.672,0.5198080986979881,0.920478562153921,0.8860407393834069,-0.1934254310757606,0.5396755532894802,0.7507249478866136,0.5581401074493567,-0.2082209905523931,0.1576788970634322,0.6304564117297374,0.3837253329900192,0.4547117340521223,-0.01214419285597446,-0.229904289437929,0.07497918123074664,0.1863186828088007,-0.06703592477309901,-0.5289394899447489,-0.3417380325404799,0.1055295949124076,840.5128205128206,804.2490842490843,784.9084249084249,806.2637362637363,795.3846153846154,-0.122498,0.121277,1.001404,4.000092,-7.499237,-4.972076,1,2,1,1,2,40.000000
2024-10-15 09:28:52.681,0.6305464705828535,-0.2155191340001569,0.1818536662014344,0.1721103338376162,0.5723030000233328,-0.1975097544363382,-0.06390597626795551,0.0811068644707985,0.7335404471332808,0.260114927938726,0.181298046305009,-0.08635720544228273,0.5809866971569668,-0.1522852742479442,-0.03118410498406706,0.531388740725668,0.1000920123133055,-0.4514798895208949,-0.5194421088264997,0.2157423261897087,913.8461538461539,789.3406593406594,785.7142857142858,823.1868131868132,842.1245421245421,-0.120911,0.114990,1.001343,5.196381,-6.714172,-4.321594,1,1,1,1,1,40.000000
2024-10-15 09:28:52.897,,,,,,,,,,,,,,,,,,,,,,,,,,,,,,,,,,,,,,/muse/elements/blink
2024-10-15 09:28:53.681,0.573636345914425,0.1651381544951261,0.07748710739125707,0.1897501742779725,0.4576083840497895,-9.423695204241356e-05,-0.06017009970525321,0.06007757707248571,0.4500724641024985,0.237307851771483,0.1625215604169904,-0.005343305369576729,0.5444431610992553,-0.2147624614642167,-0.2839070680096664,0.4877201274996692,0.1099372816678544,-0.4622169820425349,-0.5701828543584093,0.2143315839755337,984.7619047619048,792.5641025641025,789.3406593406594,832.8571428571429,899.3406593406594,-0.128723,0.129028,0.997437,5.129089,-6.646881,-4.172058,1,1,1,1,1,40.000000
2024-10-15 09:28:54.317,,,,,,,,,,,,,,,,,,,,,,,,,,,,,,,,,,,,,,/muse/elements/blink
2024-10-15 09:28:54.681,0.5625156700032806,0.6414414160910528,0.5289207801536746,0.2019639214579326,0.5113404581971303,0.275519507110208,0.09633356909987531,0.02539652969193269,0.3982442047620318,0.01628140311733661,0.1499844581115247,-0.02318575634938086,0.4428011977113865,-0.2207777381182587,-0.2717259959376833,0.424320530914913,0.1074129978670791,-0.722372746103316,-0.5829632638848919,0.2040496163846667,857.032967032967,792.967032967033,796.996336996337,821.1721611721612,890.4761904761905,-0.144897,0.115295,0.998047,4.418793,-6.953430,-4.344025,1,1,1,1,1,40.000000
2024-10-15 09:28:55.682,0.5625156700032806,0.578556363578913,0.5820055024706611,0.2019639214579326,0.5113404581971303,0.3151407739701553,0.07423557417596507,0.02539652969193269,0.3982442047620318,0.03765536954933079,-0.06458879850179257,-0.02318575634938086,0.4428011977113865,-0.09036382328950554,-0.009155821673816743,0.424320530914913,0.1074129978670791,-0.5576371793153855,-0.4718761096398362,0.2040496163846667,947.6923076923077,801.025641025641,794.1758241758242,836.8864468864469,874.7619047619048,-0.127197,0.120483,1.004639,5.607605,-6.826324,-4.291687,1,2,1,1,2,35.000000
2024-10-15 09:28:55.965,,,,,,,,,,,,,,,,,,,,,,,,,,,,,,,,,,,,,,/muse/elements/blink
2024-10-15 09:28:56.672,0.128071363728346,-0.1850176306440303,0.1654635488991784,0.152449395843801,-0.08918019406496837,-0.1296010234986336,-0.07197108634670644,0.1017268999800773,0.1586993114284774,0.1264448012399038,-0.1310679180358052,-0.08839140125394067,0.3542175935137879,-0.06230630659392652,-0.0298909178239842,0.3958513553504381,0.07506067579959709,-0.4429300645740136,-0.3545765457975387,0.2496793166260848,925.1282051282052,799.8168498168499,773.2234432234433,795.3846153846154,633.0036630036631,-0.126465,0.120972,1.002808,5.211334,-6.041260,-4.792633,1,1,1,1,1,35.000000
2024-10-15 09:28:56.800,,,,,,,,,,,,,,,,,,,,,,,,,,,,,,,,,,,,,,/muse/elements/blink
2024-10-15 09:28:57.672,0.128071363728346,0.1462849626409569,0.3258335860294723,0.152449395843801,-0.08918019406496837,-0.02805154933446096,0.04070378600753979,0.1017268999800773,0.1586993114284774,0.3310366800227278,-0.192010268240142,-0.08839140125394067,0.3542175935137879,-0.1008076951294876,-0.08497957621561109,0.3958513553504381,0.07506067579959709,-0.6064780760252599,-0.3300849399219569,0.2496793166260848,876.7765567765568,794.5787545787546,792.5641025641025,817.948717948718,949.3040293040293,-0.130127,0.119751,0.998413,4.852448,-7.716064,-4.336548,1,1,1,1,1,35.000000
2024-10-15 09:28:58.683,0.5039465729302632,-0.1849572593209981,-0.1335145589372637,-0.03206759229535045,0.5614441186397418,-0.09803195500972356,-0.03371642240382481,-0.06330989895049013,0.5182509147753587,0.2542365317098564,-0.201310336387735,0.07464586542671361,0.4834096876249901,-0.2181662324603026,-0.08402845859952057,0.1887555719989392,0.1957404780097458,-0.6131032952784143,-0.333084862689938,0.1890735709344322,935.6043956043957,797.3992673992674,788.9377289377289,841.3186813186813,737.3626373626374,-0.137817,0.107117,0.994202,4.867401,-7.596436,-4.044952,1,1,1,1,1,35.000000
2024-10-15 09:28:59.679,0.5473963795997535,-0.3297685289195134,-0.3400505197465216,0.2506732040732382,0.5022104120771785,-0.2865758681537951,-0.1525181372828601,-0.01651926358915434,0.568167515268539,0.0672252524860395,0.2018738696898475,0.3629505229425923,0.4627337762510342,-0.1340788152327727,0.05361195359180626,0.2541382739119692,0.1737201887196193,-0.5880243077094918,-0.3622730955285466,0.2440120764725805,697.0695970695971,801.4285714285714,782.893772893773,714.7985347985348,939.2307692307693,-0.129639,0.116699,1.001282,5.061798,-7.566528,-2.198181,1,1,1,1,1,35.000000
2024-10-15 09:28:59.893,,,,,,,,,,,,,,,,,,,,,,,,,,,,,,,,,,,,,,/muse/elements/blink
2024-10-15 09:29:00.678,0.6244059772994582,-0.07561341565324112,0.09869676935978688,0.1710130364293248,0.456237957427046,-0.2307511880562622,0.02620401188568169,-0.1381394948867796,0.2930381130343581,0.09014460855523175,0.221075913602136,0.2771846949367003,0.4227928569886956,-0.1790322079494938,0.0186711618065289,0.1887596805836257,-0.06477327006402417,-0.4830325277462919,-0.5231469458900808,0.3917469473064565,873.956043956044,799.8168498168499,796.5934065934066,834.4688644688645,842.9304029304029,-0.139771,0.115723,1.000916,4.538422,-6.265564,-5.136566,1,1,1,1,1,35.000000
2024-10-15 09:29:01.642,,,,,,,,,,,,,,,,,,,,,,,,,,,,,,,,,,,,,,/muse/elements/blink
2024-10-15 09:29:01.682,0.6013802627444356,0.3292980923727084,0.3369998643549181,0.0278047839282447,0.412020644877637,-0.02612787821559765,0.08021743694384906,-0.1459325270080907,0.1813130170808727,0.300837021960643,0.1014219397823257,0.2346593994858649,0.4379907277467789,-0.2371094132454894,0.03308729096067385,0.1908478049345616,-0.1470072515941563,-0.4221089512044507,-0.3695260211949421,0.434094975193988,949.3040293040293,794.5787545787546,792.5641025641025,838.901098901099,598.7545787545788,-0.146606,0.119568,0.995422,5.054321,-7.439423,-4.433746,1,1,1,1,1,35.000000
2024-10-15 09:29:02.631,,,,,,,,,,,,,,,,,,,,,,,,,,,,,,,,,,,,,,/muse/elements/blink
2024-10-15 09:29:02.671,0.6013802627444356,0.8362184907668402,0.7533940056185106,0.0278047839282447,0.412020644877637,0.4507176594492365,0.5240095880387993,-0.1459325270080907,0.1813130170808727,0.2762474229346646,0.244517179134135,0.2346593994858649,0.4379907277467789,-0.1824732257516153,-0.007884918898841511,0.1908478049345616,-0.1470072515941563,-0.4894888345401625,-0.3670115049765469,0.434094975193988,989.1941391941392,788.1318681318681,794.5787545787546,850.1831501831502,875.9706959706959,-0.136169,0.117676,0.997742,4.089813,-8.635712,-3.947754,1,2,1,1,2,35.000000
2024-10-15 09:29:03.188,,,,,,,,,,,,,,,,,,,,,,,,,,,,,,,,,,,,,,/muse/elements/blink
2024-10-15 09:29:03.681,0.6013802627444356,0.7233601814480626,0.3403512620236495,0.0278047839282447,0.412020644877637,0.3975819758550397,0.1686136382340908,-0.1459325270080907,0.1813130170808727,0.07874693557482898,0.1751049976084571,0.2346593994858649,0.4379907277467789,-0.1254283044324134,-0.1174770506051635,0.1908478049345616,-0.1470072515941563,-0.48908571325234,-0.4212861441648943,0.434094975193988,854.2124542124542,794.1758241758242,788.1318681318681,817.948717948718,755.0915750915751,-0.127075,0.115356,0.999939,4.545898,-6.945953,-5.465546,1,2,1,1,2,35.000000
2024-10-15 09:29:04.671,0.6013802627444356,0.4795782972084823,0.1338326233357223,0.0278047839282447,0.412020644877637,-0.1927873007167415,-0.02574083539011791,-0.1459325270080907,0.1813130170808727,0.03470705187019257,0.1710920919203779,0.2346593994858649,0.4379907277467789,-0.3017937541588985,-0.2967625116980193,0.1908478049345616,-0.1470072515941563,-0.6315763399171008,-0.4788564305578047,0.434094975193988,927.948717948718,794.981684981685,789.7435897435897,823.1868131868132,612.0512820512821,-0.133728,0.119141,0.999756,4.403839,-6.751556,-4.037476,1,2,1,1,2,35.000000
2024-10-15 09:29:04.940,,,,,,,,,,,,,,,,,,,,,,,,,,,,,,,,,,,,,,/muse/elements/blink
2024-10-15 09:29:05.681,0.8535067052174018,0.2299486560549639,0.2254795383131551,0.2977284908763898,0.702086910462026,0.1171797214271345,-0.0428515934870342,0.1609472994545228,0.3152884704090967,0.3478014597435024,0.04284274199868957,0.5473936429636753,0.678220029531005,-0.07247026109729383,-0.3951291423015453,0.3002807045119038,0.5342396667835159,-0.6318709372625472,-0.47928421788551,0.2037446692951364,973.8827838827839,794.1758241758242,788.1318681318681,842.1245421245421,982.7472527472528,-0.145996,0.106323,1.002258,4.620667,-6.287994,-3.985138,1,1,1,1,1,35.000000
2024-10-15 09:29:06.468,,,,,,,,,,,,,,,,,,,,,,,,,,,,,,,,,,,,,,/muse/elements/blink
2024-10-15 09:29:06.672,0.1018331948025703,0.277775801752897,0.2532908515246513,0.372689576204349,0.1865781472441843,0.1267709048688279,-0.1482365259084348,0.333420816163857,0.4946761529745106,0.335168415369636,-0.06976902372306398,0.5415430841266198,0.4299084361465947,-0.1022741784150438,-0.2090906910166058,0.2707794074308748,0.2944456489264839,-0.4516275010686074,-0.3415467343489964,0.2093944432379469,850.5860805860806,798.2051282051282,799.8168498168499,829.2307692307693,770.8058608058608,-0.140808,0.120544,1.000916,5.181427,-6.168365,-3.521576,1,1,1,1,1,35.000000
2024-10-15 09:29:07.672,0.1018331948025703,0.1088944650330585,-0.1167094926305617,0.372689576204349,0.1865781472441843,-0.1157840925029795,-0.1584655895382293,0.333420816163857,0.4946761529745106,0.131734332042612,-0.09884281507760467,0.5415430841266198,0.4299084361465947,-0.2122827372346015,-0.116071823237357,0.2707794074308748,0.2944456489264839,-0.4820082325459341,-0.4746616050180605,0.2093944432379469,911.8315018315019,795.3846153846154,788.5347985347986,836.8864468864469,761.941391941392,-0.131226,0.112671,0.997864,4.456177,-7.484283,-3.783264,1,1,1,1,1,35.000000
2024-10-15 09:29:07.804,,,,,,,,,,,,,,,,,,,,,,,,,,,,,,,,,,,,,,/muse/elements/blink
2024-10-15 09:29:08.672,0.1018331948025703,0.3961683225951861,0.1630506267207289,0.372689576204349,0.1865781472441843,-0.1718475999304496,0.2043811680665642,0.333420816163857,0.4946761529745106,0.2665805280003545,0.05751843826361407,0.5415430841266198,0.4299084361465947,-0.2094304153756764,-0.1145144914391791,0.2707794074308748,0.2944456489264839,-0.5717139356872049,-0.5085030105366157,0.2093944432379469,715.6043956043957,801.025641025641,783.6996336996338,794.981684981685,821.1721611721612,-0.140076,0.120483,0.998169,4.015045,-6.631927,-2.026215,1,1,1,1,1,35.000000
2024-10-15 09:29:09.671,0.3193127602699742,0.2528433962415471,-0.07446983191308043,-0.5951162080367836,0.6002620538827548,-0.2571186800298795,-0.05854340079691848,0.2361899789022671,0.4515334544112569,0.04284734742090104,0.1060559175424229,0.4750086903841817,0.5112890022730033,-0.1273786806306365,-0.03620509574300721,0.5808364214788495,0.3928263194953387,-0.5382301132637296,-0.3562494958076871,0.4577743921490349,784.1025641025641,792.5641025641025,791.7582417582418,791.3553113553114,829.2307692307693,-0.140381,0.109314,0.998657,4.306641,-6.594543,-5.308533,1,1,1,1,1,35.000000
2024-10-15 09:29:10.671,0.4925446452194275,0.07014331529406569,0.3074741352654677,0.09641605231290094,0.6187682873148149,-0.3153643291206731,-0.006641659132600982,0.141319136813163,0.5872004092623258,0.2185181472324673,0.09897065964275795,0.5363204328022648,0.6080735282682644,-0.06506821117199559,0.01692337130739329,0.5556389108659111,0.3848130925976309,-0.3471640741167425,-0.3877611812441058,0.4319522046614177,848.1684981684982,801.025641025641,780.4761904761905,805.0549450549451,791.7582417582418,-0.141602,0.116516,1.001221,5.263672,-7.252502,-3.334656,1,1,1,1,1,35.000000
2024-10-15 09:29:11.672,0.514191615564594,-0.05879468042449514,0.3297471979369575,-0.09890795125473813,0.6615980396622512,-0.2819723206013975,-0.0176116398486913,0.2641305071771467,0.7439246544379559,0.2216807179872536,0.1335586193328108,0.5777691361808516,0.5545206202300204,-0.08840296820849058,0.002576392468420745,0.4584041299961125,0.2721794406399952,-0.506117404524186,-0.2338493976648326,0.4588140322769414,691.8315018315019,796.1904761904763,788.5347985347986,765.5677655677656,892.4908424908425,-0.135925,0.114502,1.000610,4.538422,-7.379608,-4.643097,1,1,1,1,1,35.000000
2024-10-15 09:29:12.671,0.6441445617337825,-0.4798767108006634,-0.09947408685175924,0.3318769962155421,0.7467904705579002,-0.5950224987432726,-0.1201252288407144,0.3744181476529252,0.521926070588309,-0.07523473467129231,0.100696804623696,0.5666036663053458,0.5725157887470607,-0.1150920271107148,0.07045155020974816,0.5026907051932991,0.1304231551685443,-0.5621670455535706,-0.2868063052294065,0.3623532806827183,743.0036630036631,791.7582417582418,790.952380952381,781.6849816849817,737.7655677655678,-0.140930,0.114380,0.992371,4.164581,-6.953430,-5.435638,1,1,1,1,1,35.000000
2024-10-15 09:29:13.172,,,,,,,,,,,,,,,,,,,,,,,,,,,,,,,,,,,,,,/muse/elements/blink
2024-10-15 09:29:13.675,0.7907825171549784,0.9494746825859405,0.8856689388946999,0.6880867357945851,0.8603972873705943,0.5754445003441968,0.6203672486658725,0.6574794992446646,0.1733700751770974,0.4467229008887995,0.3003244445169708,0.5299949339404385,0.7148426866888828,-0.1326763581448405,0.03175708925017631,0.4920223969650115,0.2289729881171595,-0.4468070914394067,-0.4031057206081425,0.2995220476260111,810.2930402930403,791.7582417582418,787.3260073260074,809.0842490842491,670.8791208791209,-0.140686,0.112732,0.997803,4.807587,-6.033783,-4.859924,1,1,1,1,1,35.000000
2024-10-15 09:29:14.675,0.2137869314145991,0.9597698929445488,0.8883526777911503,0.06853899215486241,0.116164554302867,0.5742766357118451,0.5978305408708355,0.055035930730005,-0.01216332919998511,0.4467229008887995,0.29367862151938,0.3177190827507531,0.5040442533326319,-0.0921898327361987,-0.1189370820335946,0.3847974037840774,0.1966958735936304,-0.4832520965554225,-0.4288697689057366,0.369680546270659,632.6007326007326,796.996336996337,784.1025641025641,767.985347985348,745.8241758241759,-0.138611,0.115723,0.996460,4.979553,-7.529144,-3.394470,1,1,1,1,1,35.000000
2024-10-15 09:29:15.632,,,,,,,,,,,,,,,,,,,,,,,,,,,,,,,,,,,,,,/muse/elements/blink
2024-10-15 09:29:15.671,0.4033335837202191,-0.4585067699181581,-0.4936965148565526,0.03273964990003994,0.3895057080120425,-0.2065770348767019,-0.131514327093783,0.1651274145778035,0.4452575298414228,0.175432756312062,0.09586137460210432,0.4072987611914644,0.5280751657059867,-0.03070353563755131,-0.1134508048317553,0.303443661083562,0.1331290821506744,-0.5744198414645071,-0.5993159429317287,0.3118761530857355,732.9304029304029,784.5054945054945,786.5201465201466,821.1721611721612,631.7948717948718,-0.137146,0.115906,0.995850,5.188904,-7.020721,-4.673004,1,1,1,1,1,35.000000
2024-10-15 09:29:15.803,,,,,,,,,,,,,,,,,,,,,,,,,,,,,,,,,,,,,,/muse/elements/blink
2024-10-15 09:29:16.675,0.3921331114426757,0.1647160671542384,0.4963124416308802,-0.01366944367989802,0.3953474121749458,0.1828691155304508,0.3428633352684958,0.1491575172607147,0.4312358901438589,0.386156595790805,0.1377122494904628,0.1779645293493467,0.4632125370009074,0.03289869062245797,-0.1904892818904542,0.318895473686066,0.1142381999218012,-0.3533001246618877,-0.2816824758966926,0.2374640437595747,727.6923076923077,790.1465201465202,784.5054945054945,773.6263736263736,726.8864468864469,-0.136719,0.113281,0.998108,4.403839,-8.112335,-4.710388,1,1,1,1,1,40.000000
2024-10-15 09:29:17.535,,,,,,,,,,,,,,,,,,,,,,,,,,,,,,,,,,,,,,/muse/elements/blink
2024-10-15 09:29:17.674,0.3921331114426757,0.07370543341358109,0.3130177719557738,-0.01366944367989802,0.3953474121749458,-0.01383167329183689,0.03632862475117062,0.1491575172607147,0.4312358901438589,0.2024850991786203,-0.02978056897445057,0.1779645293493467,0.4632125370009074,-0.0811927000642733,-0.07826645174134378,0.318895473686066,0.1142381999218012,-0.5215713992019915,-0.2726537302291365,0.2374640437595747,670.0732600732601,783.2967032967033,801.4285714285714,830.0366300366301,859.047619047619,-0.128357,0.111328,0.993347,4.381409,-7.499237,-5.405731,1,1,1,1,1,40.000000
2024-10-15 09:29:17.748,,,,,,,,,,,,,,,,,,,,,,,,,,,,,,,,,,,,,,/muse/elements/blink
2024-10-15 09:29:18.671,0.3921331114426757,0.5454430728665569,0.3062569125885295,-0.01366944367989802,0.3953474121749458,0.1599121728916886,0.1021921241016706,0.1491575172607147,0.4312358901438589,0.04716758144912126,0.06255291918254358,0.1779645293493467,0.4632125370009074,-0.103979531906828,-0.1500832339768665,0.318895473686066,0.1142381999218012,-0.5939173301030992,-0.2220542882326763,0.2374640437595747,524.2124542124542,818.3516483516484,768.7912087912088,652.3443223443223,772.4175824175825,-0.122192,0.117126,1.000305,4.979553,-7.230072,-4.344025,1,2,1,1,2,40.000000
2024-10-15 09:29:18.841,,,,,,,,,,,,,,,,,,,,,,,,,,,,,,,,,,,,,,/muse/elements/blink
2024-10-15 09:29:19.545,,,,,,,,,,,,,,,,,,,,,,,,,,,,,,,,,,,,,,/muse/elements/blink
2024-10-15 09:29:19.671,0.3921331114426757,0.6240706624339332,0.6053839818650336,-0.01366944367989802,0.3953474121749458,0.2513485404448269,0.2440410209711256,0.1491575172607147,0.4312358901438589,0.3157940388354236,0.4491076850653095,0.1779645293493467,0.4632125370009074,-0.008862991337363891,-0.2216670724136955,0.318895473686066,0.1142381999218012,-0.5108455561681413,-0.2872072447340532,0.2374640437595747,668.4615384615385,790.952380952381,787.7289377289378,768.7912087912088,597.948717948718,-0.132874,0.120300,1.001770,5.308533,-5.951538,-4.074860,1,2,1,1,2,40.000000
2024-10-15 09:29:20.673,0.3921331114426757,0.520466055446506,0.4547479283081035,-0.01366944367989802,0.3953474121749458,0.1925267319976112,0.09463033579068643,0.1491575172607147,0.4312358901438589,0.4159509312132825,0.4533217414042645,0.1779645293493467,0.4632125370009074,-0.1230976246823479,-0.07521514940279127,0.318895473686066,0.1142381999218012,-0.4426998392842741,-0.4287086001181544,0.2374640437595747,606.007326007326,781.2820512820513,789.7435897435897,753.4798534798535,936.007326007326,-0.130005,0.117920,0.998108,4.800110,-7.693634,-3.768311,1,2,1,1,2,40.000000
2024-10-15 09:29:21.675,0.4670626957329753,0.08606043177654209,0.03959537387070183,-0.01509341917231729,0.6159601934457829,-0.1516084395503033,-0.1621127640604115,0.1896060276267042,0.5805035443886696,0.3319842147809753,-0.003291661299632731,0.4891648485786109,0.7750138146026179,-0.19868162779455,0.0002260651605255349,0.4951180921667397,0.4950004722670764,-0.5019811047686544,-0.4191179090172747,0.3304248449849684,598.7545787545788,792.1611721611722,788.9377289377289,745.8241758241759,633.4065934065934,-0.122620,0.116638,0.996643,4.949646,-7.132874,-5.136566,1,1,1,1,1,40.000000
2024-10-15 09:29:22.384,,,,,,,,,,,,,,,,,,,,,,,,,,,,,,,,,,,,,,/muse/elements/blink
2024-10-15 09:29:22.671,0.2374283155118868,0.1703093641058596,0.1949834157237098,0.3341807739305124,0.5266973352008442,0.1065240252618559,0.0665368729011702,0.2805315059147124,0.7147134977816425,0.2808745973358945,0.2157062214333062,0.6740583788305761,0.6830608332198596,-0.1879192398747481,-0.03159209816307279,0.5903890279358895,0.4293920893175232,-0.496480161534784,-0.38054811943228,0.4571100952026293,614.8717948717949,796.1904761904763,794.981684981685,757.5091575091575,543.956043956044,-0.114807,0.118530,1.004822,4.919739,-6.616974,-4.643097,1,1,1,1,1,40.000000
2024-10-15 09:29:23.671,0.1573647044977909,0.0884788153218207,0.2006130121750656,0.490803562609097,0.3633056215032831,-0.02213281302681623,-0.03979241042945909,0.2400970077529326,0.5422657192015228,0.3130190298794211,0.1619561546160359,0.6196418197365144,0.5081446172109398,-0.1223867264260518,-0.1120377209899378,0.6005922548187504,0.3411198120148315,-0.4927085035534106,-0.3867481283940222,0.5295502730975317,691.8315018315019,788.5347985347986,805.0549450549451,830.4395604395604,976.7032967032967,-0.121826,0.123108,1.002502,5.136566,-6.422577,-3.529053,1,1,1,1,1,40.000000
2024-10-15 09:29:23.773,,,,,,,,,,,,,,,,,,,,,,,,,,,,,,,,,,,,,,/muse/elements/blink
2024-10-15 09:29:24.333,,,,,,,,,,,,,,,,,,,,,,,,,,,,,,,,,,,,,,/muse/elements/blink
2024-10-15 09:29:24.675,0.1573647044977909,0.6729983670664719,0.6429128868833356,0.490803562609097,0.3633056215032831,-0.2220442577299267,-0.01812452119190868,0.2400970077529326,0.5422657192015228,-0.00395222198970739,0.06566719067559286,0.6196418197365144,0.5081446172109398,-0.1779395097849768,-0.157855766931197,0.6005922548187504,0.3411198120148315,-0.645116256880664,-0.4562423447539712,0.5295502730975317,644.2857142857143,804.2490842490843,778.8644688644689,759.5238095238095,635.8241758241759,-0.120850,0.119080,1.001465,4.800110,-7.162781,-4.792633,1,1,1,1,1,40.000000
2024-10-15 09:29:25.579,,,,,,,,,,,,,,,,,,,,,,,,,,,,,,,,,,,,,,/muse/elements/blink
2024-10-15 09:29:25.671,0.1573647044977909,0.7861659853746379,0.5694678514983484,0.490803562609097,0.3633056215032831,0.2915876687733713,0.1398576781506873,0.2400970077529326,0.5422657192015228,0.4423202085408201,0.2772608676328017,0.6196418197365144,0.5081446172109398,-0.08218529537625326,-0.1157984949221337,0.6005922548187504,0.3411198120148315,-0.6623111902733588,-0.4352349242614098,0.5295502730975317,628.1684981684982,786.5201465201466,793.3699633699634,760.7326007326008,627.7655677655678,-0.125488,0.117432,1.002808,4.807587,-6.796417,-4.216919,1,2,1,1,2,40.000000
2024-10-15 09:29:26.679,0.1573647044977909,0.8553377817331986,0.6325473221625968,0.490803562609097,0.3633056215032831,0.5230540965321299,0.1412615129800468,0.2400970077529326,0.5422657192015228,0.3948163127374664,0.2212479417342225,0.6196418197365144,0.5081446172109398,-0.2545261732467586,-0.2285986787491033,0.6005922548187504,0.3411198120148315,-0.5767840602940064,-0.4522585404431765,0.5295502730975317,750.6593406593407,789.3406593406594,791.3553113553114,801.8315018315019,1020.622710622711,-0.121338,0.118164,1.005493,4.882355,-6.646881,-4.194489,1,2,1,1,2,40.000000
2024-10-15 09:29:26.792,,,,,,,,,,,,,,,,,,,,,,,,,,,,,,,,,,,,,,/muse/elements/blink
2024-10-15 09:29:27.671,0.1573647044977909,0.3932128301961728,0.2380817051309564,0.490803562609097,0.3633056215032831,0.08993637824494276,0.06358886867506681,0.2400970077529326,0.5422657192015228,0.1263178819880947,0.07143202493033733,0.6196418197365144,0.5081446172109398,-0.248045687812051,-0.3295766386478509,0.6005922548187504,0.3411198120148315,-0.5235271772510764,-0.3915082570599044,0.5295502730975317,608.4249084249085,788.5347985347986,787.3260073260074,753.0769230769231,676.9230769230769,-0.122131,0.120544,1.002380,5.084229,-7.491760,-3.641205,1,2,1,1,2,40.000000
2024-10-15 09:29:28.670,0.2346881537957385,0.1001108034801688,-0.1128609069018195,-0.1948465549676155,0.3912316766355474,-0.1215084142754654,-0.1702072815961372,0.1046918511496377,0.7058902644057145,0.06625790978943157,0.09129947613436043,0.4587470495878359,0.6650564088308051,-0.2433706850314466,-0.1248838273491082,0.5150867104000009,0.2194323466768304,-0.4216857747877452,-0.3327310352059636,0.3945368993117367,666.0439560439561,792.967032967033,792.5641025641025,760.3296703296703,682.5641025641025,-0.121765,0.123962,1.003296,4.433746,-7.102966,-4.747772,1,1,1,1,1,40.000000
2024-10-15 09:29:29.208,,,,,,,,,,,,,,,,,,,,,,,,,,,,,,,,,,,,,,/muse/elements/blink
2024-10-15 09:29:29.677,0.4541635441902463,0.4355388685308269,0.1912961425511786,-0.002599598520088134,0.4540188489297806,0.136702924596635,0.007356622938804767,0.1986783504544642,0.7058902644057145,0.1304198401169479,0.1317703947940052,0.4587441147314349,0.690445702065587,-0.2088485179257112,-0.09788032619684113,0.5901366288617212,0.3308648712307451,-0.493919659499534,-0.3186769156516762,0.2867797493772952,817.948717948718,796.996336996337,785.7142857142858,817.1428571428571,1101.208791208791,-0.129700,0.117432,0.997986,3.902893,-7.259979,-5.099182,1,1,1,1,1,40.000000
2024-10-15 09:29:30.218,,,,,,,,,,,,,,,,,,,,,,,,,,,,,,,,,,,,,,/muse/elements/blink
2024-10-15 09:29:30.677,0.6120741313570897,0.7525697085224754,0.5015223566649805,0.1916353154993956,0.459800301703651,0.409886990347029,0.255097121335305,0.2718135145677796,0.4895081946550322,0.4397665127057417,0.1357314017006612,0.3614963152842566,0.6815820197087014,-0.1395605470059297,-0.02005939306908735,0.643913295820899,0.4523560754903842,-0.4585270526143629,-0.3963236914097596,-0.01804429225332347,784.5054945054945,790.1465201465202,788.5347985347986,796.1904761904763,779.6703296703297,-0.129761,0.112061,1.000488,5.009460,-6.512299,-4.336548,1,1,1,1,1,40.000000
2024-10-15 09:29:31.324,,,,,,,,,,,,,,,,,,,,,,,,,,,,,,,,,,,,,,/muse/elements/blink
2024-10-15 09:29:31.671,0.6120741313570897,0.5391292025013643,0.2115394065097209,0.1916353154993956,0.459800301703651,0.3341511775900319,0.08881133380185138,0.2718135145677796,0.4895081946550322,0.4641919193030525,0.2751087766351099,0.3614963152842566,0.6815820197087014,-0.0235841875911547,-0.09632733925318825,0.643913295820899,0.4523560754903842,-0.5746096137340037,-0.5525146294484847,-0.01804429225332347,682.967032967033,805.8608058608058,790.952380952381,722.4542124542124,805.4578754578755,-0.122803,0.116577,1.004883,4.852448,-7.910461,-4.575806,1,1,1,1,1,40.000000
2024-10-15 09:29:31.900,,,,,,,,,,,,,,,,,,,,,,,,,,,,,,,,,,,,,,/muse/elements/blink
2024-10-15 09:29:32.671,0.6120741313570897,0.5343652722855543,0.3182944422734691,0.1916353154993956,0.459800301703651,0.237316521659859,0.2366480793461157,0.2718135145677796,0.4895081946550322,0.2521820223147389,0.2741328892775239,0.3614963152842566,0.6815820197087014,-0.08331585839634383,-0.01206504595353048,0.643913295820899,0.4523560754903842,-0.6023527577598276,-0.3959712340267744,-0.01804429225332347,993.6263736263736,795.7875457875458,804.6520146520147,876.3736263736264,1016.593406593407,-0.117554,0.115601,1.000793,4.770203,-7.454376,-3.723450,1,2,1,1,2,40.000000
2024-10-15 09:29:32.865,,,,,,,,,,,,,,,,,,,,,,,,,,,,,,,,,,,,,,/muse/elements/blink
2024-10-15 09:29:33.671,0.6120741313570897,0.6628776716531507,0.336243748525865,0.1916353154993956,0.459800301703651,0.3131968049649682,0.1583392252164199,0.2718135145677796,0.4895081946550322,0.2058921250936548,0.2663675415523585,0.3614963152842566,0.6815820197087014,-0.2337896113376557,-0.2360702182276546,0.643913295820899,0.4523560754903842,-0.5595346305632974,-0.4517865186995446,-0.01804429225332347,682.5641025641025,798.6080586080586,788.5347985347986,768.3882783882784,586.2637362637363,-0.119873,0.116577,1.006409,4.605713,-6.250610,-4.493561,1,2,1,1,2,40.000000
2024-10-15 09:29:34.671,0.3825064424769462,0.3741540586550288,0.1652311480626024,-0.5747049080691055,0.4234941696433547,0.1409570924057677,-0.02583250357611061,0.09919884766711023,0.6155169721334034,0.3107891738544931,0.1963571007262032,0.4093046778659216,0.4645045530652194,-0.08459566245288516,-0.2127482438499302,0.361431486755254,0.4732120626514328,-0.6999930533025229,-0.4644213986661126,0.2863226179807403,867.9120879120879,790.1465201465202,794.5787545787546,814.3223443223443,878.3882783882784,-0.117065,0.117554,1.001587,5.375824,-6.856232,-2.542114,1,1,1,1,1,40.000000
2024-10-15 09:29:35.671,0.06789673489213531,-0.1762549613081538,-0.1382297796497113,0.05578730217380651,0.206680118168842,-0.2517273466095352,-0.2040323111771055,0.1481774060905493,0.6020135096562461,0.1475718981778671,-0.142636907771989,0.5984935334406354,0.4139268628873241,-0.1651702287829783,-0.08287904268045823,0.3453779342191105,0.3162445371526423,-0.583896615326,-0.4414338634306006,0.3086621302882653,991.6117216117217,801.025641025641,792.1611721611722,850.1831501831502,985.9706959706961,-0.124390,0.125427,1.001465,4.859924,-5.936584,-4.732819,1,1,1,1,1,40.000000
2024-10-15 09:29:36.671,0.07842929081878136,-0.2574275843465158,-0.640542148198654,0.1154078981245593,0.2524804446845234,-0.2928641998592202,-0.4042465774462175,0.3361470483944194,0.6209387600393337,-0.06188500428088436,0.05250110508593592,0.5522460585158787,0.4844456593699243,-0.1412414519867813,-0.05143942405915842,0.3378200735432766,0.2319976906463677,-0.5333550886329216,-0.5103214819958547,0.2875122981846102,790.5494505494506,794.5787545787546,785.3113553113553,785.7142857142858,830.0366300366301,-0.121216,0.129150,0.997742,5.136566,-6.826324,-2.736511,1,1,1,1,1,40.000000
2024-10-15 09:29:37.234,,,,,,,,,,,,,,,,,,,,,,,,,,,,,,,,,,,,,,/muse/elements/blink
2024-10-15 09:29:37.575,,,,,,,,,,,,,,,,,,,,,,,,,,,,,,,,,,,,,,/muse/elements/blink
2024-10-15 09:29:37.671,0.1838973444915402,0.02446766971183537,-0.1591263725899621,-0.2517299922550439,0.4541271969378102,-0.1741024597788688,-0.1771323431711957,0.1395973812742657,0.6738180961365412,0.2591115469344569,-0.09589624038734576,0.3224790196496512,0.5146354636419453,-0.05056497746186999,-0.1575826527863013,0.2365021233280138,0.3156852048525504,-0.5060880947883494,-0.4234112775906951,0.330379342960113,968.2417582417582,793.7728937728938,792.967032967033,833.2600732600733,1059.70695970696,-0.124512,0.130615,0.997498,5.016937,-6.041260,-3.633728,1,1,1,1,1,25.000000
2024-10-15 09:29:38.670,0.2972070515720821,0.4940745878891403,0.3206345499078191,-0.1813661209982863,0.5527350925005491,-0.2463666150624033,-0.03558512571551825,0.09364313970444074,0.6677854719007847,0.1312548804256063,-0.1385509953909364,0.2751437043357331,0.4618133314680422,-0.2660233950805403,-0.232377723443021,0.1753925032694115,0.3091043727175027,-0.3561903865498859,-0.4462927219912151,0.4896513316088574,980.3296703296703,795.7875457875458,791.3553113553114,848.5714285714286,1160.842490842491,-0.121826,0.132202,1.000305,4.867401,-7.387085,-4.119720,1,1,1,1,1,25.000000
2024-10-15 09:29:39.671,0.4717065368326283,-0.1831835542438162,-0.3054525327221417,0.2047913087839654,0.3280438587416206,-0.2208285548300359,-0.3462207697246223,0.157205772838308,0.5747484493000125,-0.2175160607590137,0.04977489212152315,0.5537478797532861,0.5411977947057628,-0.203322903787293,-0.1963638300539993,0.3565306534638679,0.1124830772692849,-0.4559470434629409,-0.4478644374952986,0.4335917559159279,896.1172161172161,793.7728937728938,801.4285714285714,810.2930402930403,971.8681318681319,-0.116882,0.128357,1.003113,4.553375,-7.230072,-3.439331,1,1,1,1,1,25.000000
2024-10-15 09:29:40.447,,,,,,,,,,,,,,,,,,,,,,,,,,,,,,,,,,,,,,/muse/elements/blink
2024-10-15 09:29:40.671,0.4654151186948919,0.03769198871569709,-0.1403538078747582,0.2018202420567195,0.4122320794011121,-0.0119393643255513,-0.04517775695439309,0.0674587363566707,0.5935947700927345,-0.1106167870623615,0.1113621835548317,0.4628389518862064,0.5560126251464573,-0.1212119868385896,-0.09721567910204654,0.4951718775435654,0.01979159526863442,-0.3988853536092541,-0.4810359962812233,0.5237181097305004,1001.282051282051,794.981684981685,801.8315018315019,840.9157509157509,630.1831501831502,-0.126587,0.136597,1.008301,4.658051,-5.607605,-4.687958,1,1,1,1,1,25.000000
2024-10-15 09:29:41.670,0.2949952793131906,0.2439686826778823,0.2069646596911718,0.07518388213486624,0.5480658966339035,0.098700237401132,0.02703562958659146,0.07780785729565956,0.3349077326431394,0.05152726230790299,0.09455958246738795,-0.09028179229538906,0.5149982137978039,-0.09950553983164578,-0.1005330192633757,0.5891571597273119,0.05671629430163336,-0.6044977526769396,-0.5249379827235219,0.5706044060538443,939.6336996336996,801.4285714285714,801.025641025641,840.9157509157509,962.1978021978023,-0.120483,0.128967,1.000366,4.501038,-6.489868,-4.800110,1,1,1,1,1,25.000000
2024-10-15 09:29:42.605,,,,,,,,,,,,,,,,,,,,,,,,,,,,,,,,,,,,,,/muse/elements/blink
2024-10-15 09:29:42.670,1.357179999762364,0.1309223739528896,0.3223491923478518,0.07518388213486624,1.007443229111617,-0.02356457880091237,-0.194982904888647,0.07780785729565956,0.8877281478642783,0.2583537545827378,0.2914008439034173,-0.09028179229538906,0.5030550147951015,-0.08051433377560861,-0.06715147207027981,0.5891571597273119,0.06813092694210811,-0.426061477334459,-0.5206390858545589,0.5706044060538443,941.6483516483516,790.1465201465202,790.1465201465202,812.3076923076924,786.1172161172161,-0.112915,0.121948,1.001526,4.224396,-7.304840,-4.486084,1,1,1,1,1,25.000000
2024-10-15 09:29:42.883,,,,,,,,,,,,,,,,,,,,,,,,,,,,,,,,,,,,,,/muse/elements/blink
2024-10-15 09:29:43.671,1.43425201996365,0.8227287600722664,0.6923482984442181,0.07518388213486624,1.087704637561008,0.46473042309146,0.3659739159558935,0.07780785729565956,0.8877281478642783,0.3202586452869184,0.4195716387401776,-0.09028179229538906,0.4650430304577291,-0.06465341769096568,-0.06283555569782244,0.5891571597273119,0.04406763553464299,-0.4089071457790085,-0.3927181493528037,0.5706044060538443,957.3626373626374,797.3992673992674,795.3846153846154,821.1721611721612,892.0879120879121,-0.120056,0.130554,0.998657,4.912262,-6.587067,-5.256195,1,1,1,1,1,25.000000
2024-10-15 09:29:44.670,0.4809070686468578,0.3780127472748097,0.1845593188578155,-0.597520860297209,0.3773000659837139,0.1239617835066009,0.08411126075938338,0.06034156915988721,0.3502068708178203,0.2093443780315948,0.2737456529508213,-0.03994918232292239,0.2861336163470691,-0.1515166580830112,-0.1357343883451226,0.4318918598940678,0.3336690752485479,-0.6676973846958097,-0.6440107047811519,0.2703363497817194,971.8681318681319,792.967032967033,788.1318681318681,831.2454212454213,885.2380952380953,-0.122498,0.125183,0.997803,5.069275,-6.833801,-4.463654,1,1,1,1,1,25.000000
2024-10-15 09:29:45.671,0.4293574420283735,-0.1585120757432499,-0.04032702483847786,-0.1524015728654652,0.4215958477264229,0.04122481271479923,-0.07446789419755982,0.2452312101777145,0.6469972270096754,0.2878784919608007,0.3191255329331328,0.625048964662005,0.369672103802773,-0.0700122727908167,-0.0722183990952264,0.4372821241795644,0.3263298923509475,-0.6952831326532685,-0.5272486634554187,0.3310817297187863,843.7362637362637,790.1465201465202,792.1611721611722,800.6227106227107,767.5824175824176,-0.119324,0.125488,1.003113,4.919739,-7.790833,-4.254303,1,1,1,1,1,25.000000
2024-10-15 09:29:46.365,,,,,,,,,,,,,,,,,,,,,,,,,,,,,,,,,,,,,,/muse/elements/blink
2024-10-15 09:29:46.670,0.4845324261017534,0.1518919155066469,0.1311940775974136,-0.1168460096073636,0.3559493653208248,0.07512483275367801,-0.1311420504947049,0.3477064272396718,0.6581845103542706,0.2980133461719915,0.2229459706060189,0.6167729975515764,0.5530526990887753,-0.1520150436093173,-0.01977376751801443,0.4329668107969781,0.2886338732184098,-0.5510065224048682,-0.3875381429965898,0.2292294243517337,878.7912087912089,792.967032967033,791.3553113553114,812.3076923076924,748.2417582417582,-0.117004,0.129822,0.997009,4.673004,-7.454376,-3.902893,1,1,1,1,1,25.000000
2024-10-15 09:29:47.670,0.3745523579991187,0.6307354648329153,0.6274593806575849,-0.4730738018521828,-0.08881168459861181,0.2330170310782888,0.400810189685833,0.1488310297033268,0.1617998757696878,0.4080817538355823,0.4459690349934836,0.3324552357421902,0.6142753594847666,-0.1485078837282581,0.0819456196269458,0.2411995488992746,0.1540882081999054,-0.4688581105087364,-0.4822113048505154,0.1672813288431629,889.2673992673992,801.4285714285714,785.3113553113553,799.0109890109891,734.9450549450549,-0.124512,0.129944,1.000977,4.949646,-7.843170,-4.261780,1,1,1,1,1,40.000000
2024-10-15 09:29:48.670,0.7780151730661771,0.3426223169011067,0.488151156566227,0.7164408549837366,0.6456699849925148,0.04300018303155293,0.344134185028065,0.7234810596956451,0.4904831602263381,0.385922149270155,0.4535875760609614,0.4674913044153819,0.5118948270698627,-0.2240048952940714,-0.04021095216809844,0.4881137608095604,0.1126306474458335,-0.5517444043219801,-0.4171465474998707,0.5017049121299282,732.9304029304029,788.9377289377289,793.3699633699634,792.5641025641025,635.0183150183151,-0.122070,0.132263,0.995544,4.553375,-6.721649,-4.628143,1,1,1,1,1,40.000000
2024-10-15 09:29:49.583,,,,,,,,,,,,,,,,,,,,,,,,,,,,,,,,,,,,,,/muse/elements/blink
2024-10-15 09:29:49.670,0.5159599612211532,-0.3795377325998294,-0.2472624704882388,0.4812512185170815,0.5030888007077255,-0.4403648327227289,-0.2157125162229658,0.4268175172745403,0.7404007565422757,0.03688470225803839,0.04855042737573424,0.441780162816503,0.5707454510141666,-0.2385731641744467,-0.06589310131825352,0.3544579919004711,0.1961810279891918,-0.6077941764083585,-0.4037509400613003,0.533396957753128,757.5091575091575,786.1172161172161,793.7728937728938,796.5934065934066,774.4322344322345,-0.125549,0.135010,0.997131,5.308533,-6.175842,-3.484192,1,1,1,1,1,40.000000
2024-10-15 09:29:50.652,,,,,,,,,,,,,,,,,,,,,,,,,,,,,,,,,,,,,,/muse/elements/blink
2024-10-15 09:29:50.670,-0.1072243731891607,-0.1319553547811639,-0.1469083454527085,0.090685974802905,-0.02841998683744601,-0.1162986120014821,-0.1578286420152538,0.3888239636841063,0.707441745520457,0.1285761863281226,-0.07179273055412853,0.4076691383375954,0.6527873138637553,-0.1700865572307159,-0.1199410017058012,0.3129639206344873,0.2323199396246558,-0.3383200716094748,-0.5478331006347944,0.4868569219862736,837.2893772893773,792.967032967033,791.7582417582418,827.6190476190476,534.6886446886447,-0.117004,0.143860,0.994507,4.231873,-7.544098,-5.443115,1,1,1,1,1,40.000000
2024-10-15 09:29:51.670,-0.1072243731891607,0.3676680793535401,0.2592333263685462,0.090685974802905,-0.02841998683744601,0.04157897764478337,0.08161330033632369,0.3888239636841063,0.707441745520457,-0.002806129411463626,-0.02678996797677755,0.4076691383375954,0.6527873138637553,-0.1345268842237575,-0.1788906552924084,0.3129639206344873,0.2323199396246558,-0.4190622669027536,-0.6376391667543683,0.4868569219862736,637.032967032967,794.5787545787546,789.3406593406594,765.1648351648352,781.2820512820513,-0.123718,0.133301,0.996582,4.987030,-6.729126,-4.164581,1,1,1,1,1,40.000000
2024-10-15 09:29:52.670,0.3774856164132446,-0.05558586334260514,-0.04827652263951414,0.4216873232511543,0.7954503308866278,-0.1247494246101063,0.1026671648359733,0.6380676245065562,0.4410106322029865,0.03561524093750825,0.2905914012376466,0.7147789469675458,0.7348517001566595,-0.06095105502070187,-0.1122080611086436,0.4688417818061166,0.006910487236471493,-0.6013229465703051,-0.4802042368214899,0.3027790676772784,625.3479853479854,801.8315018315019,780.0732600732601,737.7655677655678,622.9304029304029,-0.114929,0.134888,0.997192,5.009460,-8.284302,-4.545898,1,1,1,1,1,40.000000
2024-10-15 09:29:52.876,,,,,,,,,,,,,,,,,,,,,,,,,,,,,,,,,,,,,,/muse/elements/blink
2024-10-15 09:29:53.670,0.5319903068212339,0.4962514459197531,0.4417223203429059,0.2095229275755922,0.8901744332746703,0.2210190310388911,0.2590514773478961,0.5999246357814486,0.4410106322029865,0.218301016894876,0.2287772729532708,0.7081245364422507,0.8400823565056544,-0.04476169935887522,-0.007805069794030966,0.4864881093658549,-0.02732197323344553,-0.5412708522675617,-0.35959698343106,0.2824055054044843,699.8901098901099,794.1758241758242,790.1465201465202,764.7619047619048,624.5421245421246,-0.112488,0.135498,1.004761,4.972076,-6.945953,-3.813171,1,1,1,1,1,40.000000
2024-10-15 09:29:53.990,,,,,,,,,,,,,,,,,,,,,,,,,,,,,,,,,,,,,,/muse/elements/blink
2024-10-15 09:29:54.670,0.6000305407545913,0.6679106867510746,0.5345674640027333,0.2088790517794347,0.9602999428607213,0.4157226823286757,0.4065895674475476,0.6349208821554472,0.4410106322029865,0.1971616868594218,0.2905773616650474,0.7081245364422507,0.896481425600386,-0.1073083042105784,-0.09046122594788214,0.5112031861238924,-0.02348948785477942,-0.4650922139605722,-0.2258424554551723,0.2820825583473264,628.1684981684982,795.3846153846154,788.9377289377289,752.6739926739926,466.1904761904762,-0.118225,0.140869,0.995605,4.949646,-6.310425,-4.209442,1,1,1,1,1,40.000000
2024-10-15 09:29:55.671,0.5571415496627784,0.4436028702610015,0.3077745108727819,-0.4765103890149248,0.6612209151330057,0.1188567051763738,0.1951834189902291,0.3187286818386125,0.5413766071714908,0.07213295869443329,0.2097225359539817,0.1218893686892289,0.3343983504652376,0.02627440852260911,-0.06463687321878252,0.2711873540171697,0.09901608955550734,-0.6582194595181717,-0.4086645878319618,0.3443827585808058,655.5677655677656,790.5494505494506,789.3406593406594,765.1648351648352,822.7838827838829,-0.114990,0.135010,0.997620,4.216919,-7.035675,-4.471130,1,1,1,1,1,40.000000
2024-10-15 09:29:56.670,0.4379425911272917,-0.4370197199368668,-0.1462197785117385,-0.2010037472225786,0.5009815812115228,-0.1804410991073936,-0.2805864392078416,0.185599306794526,0.5199919578267096,0.05018794811433557,-0.09048134143931359,0.3763638212332081,0.4783980056305593,-0.08583621172160649,-0.04027520994037289,0.3722347412915317,0.2084099287784997,-0.4583032378983377,-0.5458390844305095,0.4025766929981223,634.6153846153846,790.952380952381,789.3406593406594,755.4945054945055,686.1904761904763,-0.117493,0.139465,0.993530,4.187012,-7.731018,-4.837494,1,1,1,1,1,40.000000
2024-10-15 09:29:57.647,,,,,,,,,,,,,,,,,,,,,,,,,,,,,,,,,,,,,,/muse/elements/blink
2024-10-15 09:29:57.670,0.5875980834603547,-0.5428224411959442,-0.174689649069139,0.1775205035848118,0.4248695482311967,-0.1972467915917319,-0.3742909499450815,0.081428914243619,0.2317246211240069,-0.01288277291321038,-0.141961518671282,0.6634529012841863,0.6947856245794832,-0.2223424257714274,-0.01906651716376049,0.6511710564289023,0.2711425295192439,-0.473991997174154,-0.543118708797975,0.440516134531037,641.0622710622711,793.7728937728938,789.3406593406594,759.5238095238095,666.4468864468864,-0.122253,0.142334,0.997498,4.695435,-6.916046,-4.082336,1,1,1,1,1,40.000000
2024-10-15 09:29:58.670,0.684628769240164,0.1824001102174143,0.2809736092078032,0.1716319208971596,0.4393245306858017,-0.01242648009311967,0.03335091402222266,-0.003155269760474046,0.2256202463138594,-0.2193471712360451,0.08078519218482497,0.6494350577999749,0.7374611507708747,-0.2706401089010069,-0.0915130088446852,0.7520439325512369,0.2399186958623069,-0.4049439798688952,-0.3242912746306165,0.3241985297276139,760.7326007326008,805.8608058608058,799.0109890109891,807.8754578754579,975.8974358974359,-0.118652,0.138733,0.997986,4.785156,-7.708588,-5.024414,1,1,1,1,1,40.000000
2024-10-15 09:29:59.670,0.2456029575513424,-0.1699016443219104,-0.1438995721836568,-0.7700861239664035,0.4280928949099482,-0.3536652805309166,-0.323113489042282,-0.09977473305557488,-0.09317248695558547,-0.1035032620337925,-0.06727456679354502,0.4651750053222883,0.3878893474907847,-0.2288854671840745,-0.05748312422326581,0.3023603792492124,-0.1413929902761547,-0.3918823107231336,-0.3847117122538475,0.1263383595234391,643.0769230769231,790.952380952381,801.4285714285714,791.3553113553114,733.3333333333334,-0.120789,0.141052,1.010071,4.732819,-6.048737,-5.772095,1,1,1,1,1,40.000000
2024-10-15 09:29:59.741,,,,,,,,,,,,,,,,,,,,,,,,,,,,,,,,,,,,,,/muse/elements/blink
2024-10-15 09:29:59.976,,,,,,,,,,,,,,,,,,,,,,,,,,,,,,,,,,,,,,/muse/elements/blink
2024-10-15 09:30:00.670,0.2369349017926001,0.5825100779411385,0.576964777530643,-0.8121698050989851,0.3912185514363491,0.2400810546703792,0.1132051900494564,-0.04598046206138093,-0.2284297948462189,-0.1233006415243178,0.05794060321010445,0.3442911436949233,0.3958642895617632,-0.08022500895109334,-0.1649237880876853,0.385885294284587,-0.1300096922760113,-0.5214297911595505,-0.5429204970676661,0.17210368329665,682.967032967033,788.5347985347986,792.1611721611722,778.0586080586081,486.3369963369964,-0.122681,0.132263,1.004700,5.547791,-6.549683,-4.545898,1,1,1,1,1,40.000000
2024-10-15 09:30:01.681,0.04344462767310689,0.4978479962924727,0.6000287602403356,0.4050604377005999,0.3851862434431663,0.007743897748157986,-0.03434026325817881,-0.2707852984840142,0.4810003191235668,-0.006588733235005866,0.1677948872560954,0.3749956205635457,0.6390884831271412,0.06254961636453885,-0.06102867750684093,0.4216000852471307,0.09062668297876335,-0.4656128207269128,-0.4674358624113341,0.3309785390935858,859.047619047619,796.5934065934066,796.1904761904763,819.96336996337,1093.553113553114,-0.116394,0.144104,0.998474,5.644989,-7.289886,-2.930908,1,1,1,1,1,40.000000
2024-10-15 09:30:02.631,,,,,,,,,,,,,,,,,,,,,,,,,,,,,,,,,,,,,,/muse/elements/blink
2024-10-15 09:30:02.670,0.287412806498944,-0.1519095615726899,0.2177001165980384,0.5767506482290771,0.4637966688351368,-0.3874785266752363,-0.3057936760415272,0.09860982824734385,0.6898102902439782,-0.08675724674042093,0.303856418464181,0.5992197400123817,0.529431393469788,0.0276391302075421,-0.2099989947824081,0.3900254594427862,0.01353963024202988,-0.5015573111370264,-0.4440787948456691,0.2125169006556505,818.7545787545788,792.5641025641025,798.2051282051282,807.4725274725275,906.1904761904763,-0.119263,0.132690,1.000854,4.732819,-8.052521,-4.538422,1,1,1,1,1,40.000000
2024-10-15 09:30:03.670,0.5625459812859411,0.5864437237251969,0.2283202867515321,0.6790859712340227,0.535833713147345,0.2988544299836985,0.2144524996118739,0.3153460545892388,0.5936796352007655,-0.1280933049255859,0.2693932951992574,0.5861092028521939,0.2777991253653603,0.04529119974744358,-0.1979757392278651,0.3662660348202421,-0.1259283605503559,-0.4740581910135342,-0.5257655830221508,0.1404968007667204,668.8644688644689,794.981684981685,786.9230769230769,755.0915750915751,679.7435897435897,-0.109741,0.135132,0.997192,4.830017,-7.641296,-3.910370,1,1,1,1,1,40.000000
2024-10-15 09:30:04.447,,,,,,,,,,,,,,,,,,,,,,,,,,,,,,,,,,,,,,/muse/elements/blink
2024-10-15 09:30:04.671,0.5625459812859411,0.3043538730036951,0.03608801579495632,0.3648916847310419,0.535833713147345,0.08422898782502687,0.1871191716199603,0.6056636479618112,0.5936796352007655,0.06970118849772004,0.4585283662605113,0.2328595854656729,0.2777991253653603,-0.08177793269848661,-0.2461556123199368,0.5391032375526117,-0.1259283605503559,-0.5160654328131501,-0.4562415782771747,0.205461898262976,836.4835164835165,798.6080586080586,788.1318681318681,806.2637362637363,970.6593406593407,-0.127075,0.139648,1.003540,4.800110,-6.848755,-5.129089,1,1,1,1,1,40.000000
2024-10-15 09:30:05.146,,,,,,,,,,,,,,,,,,,,,,,,,,,,,,,,,,,,,,/muse/elements/blink
2024-10-15 09:30:05.680,0.5625459812859411,0.6980278132751268,0.5612933992654421,0.3451803516514315,0.535833713147345,0.3174360633046728,0.4192132122078925,0.6272163592525072,0.5936796352007655,0.2651496335203776,0.5282666645336527,0.2101370334884267,0.2777991253653603,-0.07399297519940277,-0.1434119935386164,0.5344524206326727,-0.1259283605503559,-0.407498299135383,-0.5144506652427789,0.1914973280910414,814.7252747252747,799.0109890109891,795.3846153846154,788.9377289377289,846.959706959707,-0.121033,0.135254,0.997192,4.889832,-7.469330,-4.299164,1,1,1,1,1,40.000000
2024-10-15 09:30:06.468,,,,,,,,,,,,,,,,,,,,,,,,,,,,,,,,,,,,,,/muse/elements/blink
2024-10-15 09:30:06.670,0.5625459812859411,0.3119298062065565,0.3583018412596764,0.3451803516514315,0.535833713147345,-0.01030936138707893,-0.004723521949213582,0.6272163592525072,0.5936796352007655,0.1991756595098452,0.1232538994559509,0.2101370334884267,0.2777991253653603,-0.05580012451402741,-0.1218088203536824,0.5344524206326727,-0.1259283605503559,-0.4245579278423401,-0.543038283071827,0.1914973280910414,788.1318681318681,797.8021978021978,784.5054945054945,791.7582417582418,509.7069597069597,-0.113647,0.133118,0.996887,4.658051,-6.265564,-3.880463,1,1,1,1,1,40.000000
2024-10-15 09:30:07.684,0.5625459812859411,0.1247691834641993,0.0815120697272816,0.3451803516514315,0.535833713147345,-0.2510950693931936,-0.4574876573593082,0.6272163592525072,0.5936796352007655,0.09834730535115636,0.07159886807302829,0.2101370334884267,0.2777991253653603,-0.1478163633529985,-0.03864605415699227,0.5344524206326727,-0.1259283605503559,-0.5870820409708271,-0.5291564544709874,0.1914973280910414,951.7216117216118,801.4285714285714,784.9084249084249,821.978021978022,978.7179487179487,-0.119751,0.136841,0.999451,5.360870,-6.130981,-4.523468,1,2,1,1,2,40.000000
2024-10-15 09:30:08.670,0.5158647240823208,-0.08791033021035692,-0.3639131720765548,0.8439683078901331,0.7610766576105373,-0.4283068946825798,-0.2324358760285525,0.7650276581175197,1.118466270291293,0.2071356059725449,0.2967778119821035,0.8616971972816381,0.5450579803098057,-0.2157432802402232,-0.1560380968722952,0.4292576386557337,0.1779643315835508,-0.6609798397598912,-0.4132579145309174,0.1740541809210808,950.9157509157509,797.8021978021978,790.5494505494506,859.8534798534798,1026.666666666667,-0.119751,0.131470,1.005188,5.106659,-7.731018,-5.173950,1,1,1,1,1,35.000000
2024-10-15 09:30:09.670,0.575941796900391,-0.3088915989876006,-0.1211795306167911,0.9927783435497629,0.7824406114721224,-0.2976338998032969,-0.01403764678841372,0.9378652484360798,1.112493428637208,0.2925715342550661,0.2619902352183057,0.8616971972816381,0.500012552012548,-0.291900714866507,-0.06810002969257335,0.2633522358493391,0.09393711614461393,-0.4439475953983044,-0.4284702607325937,0.3383826709030782,882.8205128205128,796.996336996337,793.3699633699634,808.2783882783883,886.0439560439561,-0.128174,0.131897,1.006836,5.271149,-7.588959,-4.157104,1,1,1,1,1,35.000000
2024-10-15 09:30:10.218,,,,,,,,,,,,,,,,,,,,,,,,,,,,,,,,,,,,,,/muse/elements/blink
2024-10-15 09:30:10.670,,,,,,,,,,,,,,,,,,,,,,,,,,,,,,,,,,,,,,/muse/elements/blink
2024-10-15 09:30:10.682,0.4983318659602542,0.456075219211537,0.534030674038562,0.9927783435497629,0.6898091940259174,0.4211778049748219,0.269859462655798,0.9378652484360798,1.048629806492091,0.4734388401085861,0.2497834236310559,0.8616971972816381,0.4632591259414111,-0.1366120554576104,0.04838025204222345,0.2633522358493391,0.08516941237024901,-0.5442111768645497,-0.3803489703864343,0.3383826709030782,1001.684981684982,795.3846153846154,796.996336996337,850.5860805860806,781.2820512820513,-0.122375,0.129883,0.995483,4.972076,-5.839386,-4.209442,1,1,1,1,1,35.000000
2024-10-15 09:30:11.670,0.4983318659602542,0.7581975080196746,0.6400082376698152,0.9927783435497629,0.6898091940259174,0.588447794288282,0.352138161559023,0.9378652484360798,1.048629806492091,0.4082191617426846,0.1152972872752168,0.8616971972816381,0.4632591259414111,-0.07935405482200389,0.06937357551122698,0.2633522358493391,0.08516941237024901,-0.4395275996699699,-0.3945400358761271,0.3383826709030782,980.7326007326008,794.5787545787546,795.3846153846154,842.9304029304029,948.901098901099,-0.121277,0.135681,1.002686,4.957123,-7.073059,-3.895416,1,2,1,1,2,35.000000
2024-10-15 09:30:12.046,,,,,,,,,,,,,,,,,,,,,,,,,,,,,,,,,,,,,,/muse/elements/blink
2024-10-15 09:30:12.670,0.4983318659602542,0.5092852502926615,0.1889459031866519,0.9927783435497629,0.6898091940259174,0.2284646748291576,0.02419176236624359,0.9378652484360798,1.048629806492091,0.3935578150270292,0.1212956732932643,0.8616971972816381,0.4632591259414111,-0.03577131430341658,0.02935528744459974,0.2633522358493391,0.08516941237024901,-0.4606523019735203,-0.4378902372151205,0.3383826709030782,967.8388278388279,796.1904761904763,788.1318681318681,823.1868131868132,890.0732600732601,-0.111755,0.127625,1.001831,5.009460,-7.245026,-3.805695,1,2,1,1,2,35.000000
2024-10-15 09:30:13.670,0.6206696456013132,0.5015948323143458,-0.04928784400333342,0.5813689086112808,0.6702749307621687,0.16641690489334,-0.116730011560355,0.6397470239799508,0.4587889568536936,0.3587748811383484,0.07012452773866076,0.412334114245192,0.2658614742614926,-0.2022437909144783,-0.2083560595838395,0.3362826684197779,0.1744590546501007,-0.5974371634118916,-0.5225979815204538,0.4367202624750649,927.5457875457876,799.8168498168499,781.6849816849817,819.96336996337,856.6300366300367,-0.114380,0.126526,1.004822,4.643097,-6.273041,-4.815063,1,1,1,1,1,35.000000
2024-10-15 09:30:14.702,0.4224361179087279,-0.2768154835664017,-0.3846083653778377,0.3122878296448028,0.5348788048415736,-0.2763313356423285,-0.2801416737749788,0.3871385968235091,0.7578426498271544,0.1652832483035435,0.228951607412674,0.6437969853873557,0.4608732619640721,-0.3018449909648269,-0.1484400108843187,0.3634623110271711,0.2034175698763734,-0.5929582022769158,-0.5549755802127111,0.4072462260573608,971.0622710622711,794.981684981685,788.5347985347986,836.8864468864469,898.1318681318681,-0.118958,0.130188,1.002441,4.867401,-6.916046,-3.723450,1,1,1,1,1,35.000000
2024-10-15 09:30:15.694,0.2290208938732375,-0.493035429430302,-0.2882040825105613,0.1075131846963064,0.5249038221073409,-0.2732100340339876,-0.1863127658549658,0.3025113008585263,0.8114356254819867,0.1368021809633279,0.2623858619593763,0.6201655357176409,0.5049499041072921,-0.2678149474913286,-0.1634339036810067,0.3896190264239343,0.2984637056209061,-0.6167500793552949,-0.538959128006957,0.3179647616362862,1014.175824175824,788.9377289377289,796.1904761904763,855.8241758241759,937.2161172161173,-0.123291,0.120483,0.999084,4.957123,-5.861816,-5.106659,1,1,1,1,1,35.000000
2024-10-15 09:30:16.698,0.3044420268463882,0.4676294968259631,0.4398007915355669,0.02627076774578215,0.6351640783632395,0.081682315931567,0.1500430915167144,0.5767385618186006,0.5408545900626445,-0.1184361217530297,0.2319306971475652,0.4505614094141561,0.4288748529620269,-0.1538053846705672,-0.2103947390375516,0.4163217144943094,0.2836346287958637,-0.4810052306776244,-0.5139575911953915,0.1770358689241734,890.8791208791209,801.8315018315019,800.6227106227107,838.0952380952381,871.1355311355312,-0.121216,0.125183,0.999695,5.084229,-6.048737,-3.476715,1,1,1,1,1,35.000000
2024-10-15 09:30:17.710,,,,,,,,,,,,,,,,,,,,,,,,,,,,,,,,,,,,,,/muse/elements/blink
2024-10-15 09:30:17.716,0.687515215045157,0.01123238564695794,0.09760648198994026,-0.4564470924937449,0.05048263292243758,-0.2949140134498563,-0.1142882600996498,-0.024600914009892,0.4270509149986397,-0.05549218185771688,0.1399561674963886,0.3490575180026766,0.5569743690424263,-0.06916868855913767,-0.1172234479447802,0.3514845332571902,0.2242593487381911,-0.5007867013011756,-0.474731578148348,0.4172519667846142,738.974358974359,780.4761904761905,784.1025641025641,775.6410256410256,465.3846153846154,-0.120422,0.134094,1.001526,4.463654,-7.633820,-4.889832,1,1,1,1,1,35.000000
2024-10-15 09:30:18.482,,,,,,,,,,,,,,,,,,,,,,,,,,,,,,,,,,,,,,/muse/elements/blink
2024-10-15 09:30:18.745,0.6699332675911329,0.6042147368291148,0.8629188427461268,-0.7223902992755353,0.005682466376541659,0.4298218074306133,0.3331421696337007,0.00205572832889596,0.3589958771978048,0.2566104424633922,0.2367886881185552,0.2955878114652098,0.4684770111406589,-0.194332046468727,-0.06209359923034124,0.3409350047029686,0.2255062195068038,-0.5564676271031013,-0.3723197390081342,0.3504240103382724,622.1245421245421,793.3699633699634,792.1611721611722,765.1648351648352,635.4212454212454,-0.119263,0.125305,1.002258,5.099182,-7.013245,-4.059906,1,1,1,1,1,40.000000
2024-10-15 09:30:19.374,,,,,,,,,,,,,,,,,,,,,,,,,,,,,,,,,,,,,,/muse/elements/blink
2024-10-15 09:30:19.743,0.6699332675911329,0.4699085411854166,0.5221626357747294,-0.7223902992755353,0.005682466376541659,0.3302554807484024,0.1012348697153819,0.00205572832889596,0.3589958771978048,0.2261381026954848,0.2322596739766411,0.2955878114652098,0.4684770111406589,-0.1872410321498075,-0.1348978327685645,0.3409350047029686,0.2255062195068038,-0.5259180867647787,-0.4218917867357487,0.3504240103382724,641.4652014652015,798.6080586080586,794.1758241758242,763.5531135531136,593.1135531135532,-0.123352,0.130249,1.003784,4.590759,-6.033783,-5.039368,1,1,1,1,1,40.000000
2024-10-15 09:30:20.758,0.6699332675911329,0.1445939863094427,-0.32987455053991,-0.7223902992755353,0.005682466376541659,-0.1808137164460188,-0.2533440523431306,0.00205572832889596,0.3589958771978048,0.02431378502271386,0.2931923460038967,0.2955878114652098,0.4684770111406589,-0.1936815103767657,-0.04680348028215153,0.3409350047029686,0.2255062195068038,-0.5962928270228582,-0.5880018519651479,0.3504240103382724,552.4175824175825,811.9047619047619,777.6556776556777,681.3553113553114,874.7619047619048,-0.119812,0.130737,1.002075,5.084229,-6.796417,-4.097290,1,2,1,1,2,40.000000
2024-10-15 09:30:21.013,,,,,,,,,,,,,,,,,,,,,,,,,,,,,,,,,,,,,,/muse/elements/blink
2024-10-15 09:30:21.766,0.6699332675911329,0.4583968737396089,0.5203876918764372,-0.7223902992755353,0.005682466376541659,0.2911825769587761,-0.06572824727262448,0.00205572832889596,0.3589958771978048,-0.02032784646037143,0.1794787131315306,0.2955878114652098,0.4684770111406589,-0.2218012642580705,-0.06233897422448676,0.3409350047029686,0.2255062195068038,-0.5788548596788691,-0.4932539394022706,0.3504240103382724,614.4688644688645,792.5641025641025,792.1611721611722,758.3150183150184,695.8608058608058,-0.113831,0.127930,1.007751,5.368347,-7.888031,-3.686066,1,2,1,1,2,40.000000
2024-10-15 09:30:22.765,0.5923671262273912,0.3404166719016491,0.4199940226794315,-0.346431070334788,0.5403882184384956,0.2227013374046166,0.09767144094864282,-0.008901996062783985,0.2722199903820512,0.1479992456460105,0.1565186428693703,0.305618130360448,0.1516753084273633,-0.1457768620332975,-0.02022250586315448,0.3573558971706398,0.1452511351352495,-0.3865333194501961,-0.433649954459745,0.487881331451227,612.4542124542124,800.2197802197802,792.5641025641025,760.3296703296703,455.7142857142857,-0.119141,0.135742,1.003418,4.964600,-6.459961,-4.239349,1,1,1,1,1,40.000000
2024-10-15 09:30:23.768,0.5778292681793348,-0.5510069528105801,-0.6529964852374999,0.1485940013058091,0.6441106979475703,-0.2404064321358654,-0.427805064659094,0.3845357805832154,0.6899535733015102,0.1410793751700269,0.1084937995185406,0.4703086689604681,0.2880050683357812,-0.09432270279890972,-0.2372295389252173,0.192453419800004,0.2079695003850623,-0.4902966120974954,-0.4471275868349865,0.4271821515514308,688.6080586080586,794.1758241758242,790.5494505494506,763.5531135531136,860.6593406593407,-0.117920,0.138062,1.002014,4.867401,-7.230072,-4.418793,1,1,1,1,1,40.000000
2024-10-15 09:30:24.757,0.4185008949624084,-0.2976598199839602,-0.07775974413375257,0.3736387646292847,0.6592680107884914,-0.2184359691250141,0.02333341965215056,0.4926190555315701,0.7302670443901964,0.1179962945489032,-0.1271365376706327,0.5140464158026752,0.4569733500127681,-0.1025845692214557,-0.1253215884074992,0.4436958786087651,0.2145739646282135,-0.6593561860595154,-0.4618275744201822,0.4569766329094647,802.6373626373627,799.8168498168499,790.952380952381,787.7289377289378,639.047619047619,-0.108643,0.135010,1.001343,4.919739,-6.923523,-3.925323,1,1,1,1,1,40.000000
2024-10-15 09:30:25.011,,,,,,,,,,,,,,,,,,,,,,,,,,,,,,,,,,,,,,/muse/elements/blink
2024-10-15 09:30:25.766,2.274623638756403e-07,0.08696143976329496,0.1219245465480799,0.4760624469611556,0.5702325126703013,-0.1539927175999241,0.005107066218446786,0.3649970986183201,0.3372923041504976,0.1068646422806791,0.1285577064017988,0.00909209130016104,0.6125569323316206,-0.1829824178362106,-0.08564762848957212,0.7036720976274431,0.18489016944172,-0.6324910728947155,-0.366037246389894,0.4674741778900647,630.1831501831502,794.981684981685,795.3846153846154,761.941391941392,612.0512820512821,-0.110657,0.140625,1.003418,4.747772,-6.347809,-4.508514,1,1,1,1,1,40.000000
2024-10-15 09:30:26.758,0.3802032166034501,0.004624590183679844,-0.02205664555773369,0.06501450019443034,0.05720521092415897,-0.06859489245211096,-0.2108508407356741,0.3838259946925177,0.2319404406553848,-0.05643227796206329,0.127943617385623,0.3371396115050397,0.4263710775156642,-0.08586574525106687,-0.1106676772220564,0.2628605899322189,0.245810520569534,-0.4570087438553164,-0.3934650721922451,0.3846742215494851,912.2344322344322,800.2197802197802,795.3846153846154,834.8717948717949,780.4761904761905,-0.113159,0.138428,1.005493,5.188904,-6.901093,-4.157104,1,1,1,1,1,40.000000
2024-10-15 09:30:27.761,0.7822365350450757,-0.02153470682168417,-0.1355401593044353,0.9140659024868107,0.6223821505187076,0.01315485107236092,-0.1874749424257262,0.5909392993405108,0.8564271950721219,0.2359185866737009,0.1726534935375797,0.6767138922338198,0.4172913491600657,-0.1153039772419027,0.05600527229640612,0.2632355708227849,0.2556414255532544,-0.4236752312992587,-0.4163004478948015,0.5725660515677922,747.8388278388279,796.996336996337,789.7435897435897,780.8791208791209,573.7728937728938,-0.108215,0.144775,1.000305,5.144043,-6.729126,-4.508514,1,1,1,1,1,40.000000
2024-10-15 09:30:28.760,0.6200568100087672,-0.2925877966258923,-0.1275637334117472,0.6883258407340924,0.299742680780144,-0.2388081773774309,-0.1851045209285375,0.2140524660053577,0.5658233715606669,0.142024528510124,0.2586480368339679,0.5075174926649325,0.560374224592444,-0.08430708982610026,0.01229576601702507,0.3985742359742481,0.2924594029280791,-0.4632229367016643,-0.301929709293199,0.5425021391590413,667.2527472527473,786.9230769230769,790.1465201465202,803.040293040293,624.1391941391942,-0.108459,0.136047,1.002136,3.902893,-7.125397,-4.403839,1,1,1,1,1,40.000000
2024-10-15 09:30:28.768,,,,,,,,,,,,,,,,,,,,,,,,,,,,,,,,,,,,,,/muse/elements/blink
2024-10-15 09:30:29.764,0.8261189747711387,0.2041654207191917,0.2632862484622826,0.6912402726447555,0.2442917769097116,-0.05164755295853221,-0.1940624665164771,0.07379699287475926,0.2739366926529749,0.1099768136185993,0.2792709032909763,0.1767336029879936,0.6813862195143527,-0.08664598047663549,-0.03435294309982826,0.5677133323386118,0.2444160027276828,-0.4990661558997362,-0.326201990738403,0.5533396639032001,817.5457875457876,796.5934065934066,798.6080586080586,807.0695970695971,873.1501831501831,-0.113281,0.132629,0.994141,4.807587,-5.981445,-4.762726,1,1,1,1,1,35.000000
2024-10-15 09:30:30.717,0.2230391511032224,-0.1017519483243064,-0.06630924142939087,0.2233009358264616,0.4218488338158761,-0.1772346173365395,-0.335711621594243,-0.1896273075759443,0.4498188541674555,-0.1060964235621189,0.07907080123141845,0.1927174492520869,0.433209732019419,-0.1177467551216742,-0.08366883524565877,0.3141377016830752,0.4636459073378051,-0.376276280383775,-0.4250348074457151,0.4730274358247672,663.6263736263736,790.952380952381,793.3699633699634,801.8315018315019,691.8315018315019,-0.119507,0.135315,1.000183,5.009460,-6.160889,-4.246826,1,1,1,1,1,35.000000
2024-10-15 09:30:30.848,,,,,,,,,,,,,,,,,,,,,,,,,,,,,,,,,,,,,,/muse/elements/blink
2024-10-15 09:30:31.719,0.216289343499064,0.1936935538622074,0.151069437743323,0.329700181924149,0.4040868893101252,0.1396333253366524,-0.2299637038290247,-0.1486367212544167,0.2069272538249679,-0.09211953328237718,0.2263291718225049,-0.1425187604256775,0.4083669806609061,-0.07535523189718467,-0.06899012546599015,0.330778238869733,0.4503028862514926,-0.5061660862048196,-0.4776456513863298,0.4920419444825694,626.5567765567765,797.8021978021978,792.967032967033,776.8498168498169,770,-0.109558,0.132263,1.000549,4.523468,-7.207642,-4.471130,1,1,1,1,1,35.000000
2024-10-15 09:30:32.768,0.7124957139735535,0.2513258046015762,0.1859983623936397,0.2370659336192011,0.5493887682503996,0.07899738327128603,0.1297218828359957,0.3418158571114265,0.8745812867981525,0.1574771563169371,0.2307100661414814,0.4548907019814852,0.6182455119136634,-0.1140795848507284,-0.1612665560904417,0.5181047240814831,0.2549190845398017,-0.5082606109395559,-0.502414660268047,0.3715575559442789,880.8058608058608,786.5201465201466,796.5934065934066,828.8278388278388,939.6336996336996,-0.109985,0.135437,1.001709,5.263672,-5.630035,-4.755249,1,1,1,1,1,35.000000
2024-10-15 09:30:33.697,0.9134249506710752,0.5296873176050541,0.1341536353649323,0.3578825986456016,0.7612628178583799,0.1978342506076606,-0.1025910678253663,0.2889425671657881,0.8671308765193622,0.1181941677957429,-0.1695185475892994,0.4352291071618484,0.6911497229000834,-0.132098019633437,-0.3956287271628663,0.5465985578365683,0.4304268052378392,-0.5548827277338644,-0.4053152151964999,0.3209320947140644,619.3040293040293,802.2344322344322,790.5494505494506,761.1355311355312,707.5457875457876,-0.113098,0.132324,0.998840,5.076752,-6.512299,-4.216919,1,1,1,1,1,35.000000
2024-10-15 09:30:34.515,,,,,,,,,,,,,,,,,,,,,,,,,,,,,,,,,,,,,,/muse/elements/blink
2024-10-15 09:30:34.765,0.4575651849355735,0.4411496351048655,0.1580008379933893,0.3578825986456016,0.6672643778035438,0.06694314811284881,0.04482408440960909,0.2889425671657881,0.2190115214010243,0.190309664937499,-0.09415332418212821,0.4352291071618484,0.4905214649898608,-0.06541041709346301,-0.2176411743207649,0.5465985578365683,-0.2153562292807567,-0.5442280825529842,-0.458318767721657,0.3209320947140644,752.6739926739926,792.5641025641025,790.1465201465202,783.6996336996338,731.7216117216118,-0.097351,0.166016,1.007812,4.538422,-9.316101,-13.174133,1,1,1,1,1,35.000000
2024-10-15 09:30:35.197,,,,,,,,,,,,,,,,,,,,,,,,,,,,,,,,,,,,,,/muse/elements/blink
2024-10-15 09:30:35.669,0.3821903089182513,1.017279897397819,0.6277865960868804,0.3578825986456016,0.6175156159319989,0.4910012959850567,0.2347403844361889,0.2889425671657881,0.1811153719404081,0.2553950242201143,0.1531089966269346,0.4352291071618484,0.526834328772114,-0.1366758891280982,-0.06461331545605915,0.5465985578365683,-0.2513850617884971,-0.4933319240018438,-0.2762841292405018,0.3209320947140644,797.8021978021978,796.996336996337,788.9377289377289,816.7399267399268,713.1868131868132,0.007263,0.225525,0.998169,9.495544,-7.372131,3.544006,1,1,1,1,1,35.000000
2024-10-15 09:30:35.711,,,,,,,,,,,,,,,,,,,,,,,,,,,,,,,,,,,,,,/muse/elements/blink
