TimeStamp,Delta_TP9,Delta_AF7,Delta_AF8,Delta_TP10,Theta_TP9,Theta_AF7,Theta_AF8,Theta_TP10,Alpha_TP9,Alpha_AF7,Alpha_AF8,Alpha_TP10,Beta_TP9,Beta_AF7,Beta_AF8,Beta_TP10,Gamma_TP9,Gamma_AF7,Gamma_AF8,Gamma_TP10,RAW_TP9,RAW_AF7,RAW_AF8,RAW_TP10,AUX_RIGHT,Accelerometer_X,Accelerometer_Y,Accelerometer_Z,Gyro_X,Gyro_Y,Gyro_Z,HeadBandOn,HSI_TP9,HSI_AF7,HSI_AF8,HSI_TP10,Battery,Elements
43:29.4,,,,,,,,,,,,,,,,,,,,,,,,,,,,,,,,,,,,,,/muse/event/connected Muse-19E7
43:30.4,0.700648013,0.805462189,0.515249711,0.447448057,0.602261815,0.007672832,-0.323352318,0.303778603,1.175713466,0.080487627,0.209567903,1.290695772,0.309916586,0.295245289,0.24605315,0.458826873,-0.048186549,-0.003222333,-0.176519632,0.019268235,800.6227106,794.981685,792.5641026,801.8315018,652.7472527,-0.465454,0.086609,0.895203,4.807587,-6.863708,-4.658051,1,1,1,1,1,65,
43:31.4,0.921519331,0.748255584,0.79419983,0.445006634,0.577453553,0.141225252,-0.019977939,0.426180924,0.970028446,0.260465746,0.234192058,0.761194954,0.173283787,0.283251283,0.293548261,0.416143592,-0.075321405,0.045883854,-0.302272457,-0.017369358,789.3406593,779.2673993,796.1904762,794.1758242,566.9230769,-0.465637,0.082886,0.891724,4.762726,-6.893616,-4.545898,1,1,1,1,1,65,
43:32.4,0.849744775,0.590584949,0.648612747,0.566534258,0.551506065,0.059993697,-0.075244432,0.236936401,0.870076552,0.391295214,0.203485617,0.930126531,0.320784458,0.194736791,0.268336605,0.480859333,-0.133641994,0.113309213,-0.208475447,-0.064977791,798.2051282,795.7875458,790.5494505,794.1758242,629.7802198,-0.461792,0.090088,0.894409,4.882355,-7.574005,-3.977661,1,1,1,1,1,65,
43:33.4,0.239464847,0.162654348,0.141983186,-0.016595999,0.139732172,-0.013135087,-0.00069234,0.222655129,1.121465707,0.573847381,0.240075031,1.031741556,0.44419791,0.40596789,0.274512897,0.542750561,-0.187226958,0.013241366,-0.077383806,-0.087254902,793.3699634,774.8351648,798.2051282,810.6959707,1040.769231,-0.46106,0.085938,0.895935,4.725342,-6.74408,-4.628143,1,1,1,1,1,65,
43:34.4,0.652523315,0.406442609,0.167137093,0.129420309,0.310922477,0.267332772,-0.195170896,0.155929127,1.095561924,0.614122246,0.550130678,1.005567719,0.492469826,0.417448532,0.382334015,0.539312031,-0.101383504,0.110045006,0.359524651,-0.034653973,794.1758242,783.6996337,790.952381,788.9377289,669.2673993,-0.461731,0.090942,0.902466,5.054321,-6.654358,-3.686066,1,1,1,1,1,65,
43:35.4,0.799369088,0.445769505,0.246967454,0.716940666,0.419831744,-0.022213275,-0.174453643,0.627091853,0.504785632,0.195671423,0.788060034,0.664664316,0.287082867,0.426874313,1.231299229,0.341256109,-0.044551539,0.147344545,1.000197452,0.015699217,798.6080586,778.0586081,794.981685,796.1904762,621.3186813,-0.439575,0.101562,0.907715,5.308533,-7.192688,-3.491669,1,1,1,1,1,65,
43:36.4,-0.149665801,0.331021387,0.292442732,0.244293404,-0.107211032,-0.43123514,-0.102511642,0.184641016,0.484296948,0.075303652,0.152797052,0.684072611,0.310629184,0.505839095,0.966449378,0.44931063,-0.004040075,0.151134692,0.745114772,0.108268537,804.6520147,788.9377289,803.040293,805.4578755,992.4175824,-0.427979,0.101135,0.915527,4.695435,-6.676788,-4.4487,1,1,1,1,1,65,
43:37.4,-0.180640265,-0.284317557,-0.068652967,-0.121543968,-0.171422092,-0.381733798,-0.125731354,0.080713871,0.346120254,0.233303231,0.404168546,0.397323157,0.186317647,0.373813276,0.908171298,0.304361734,-0.121455267,0.168897828,0.563975426,0.142717737,804.6520147,788.5347985,796.5934066,805.4578755,683.3699634,-0.424316,0.098022,0.917297,4.80011,-7.439423,-4.28421,1,1,1,1,1,65,
43:38.4,-0.129878541,-0.600699626,-0.43992177,-0.119600165,0.07531815,-0.093659781,-0.336086591,0.129270912,0.305527748,0.193173621,0.363466211,0.538896624,0.144369361,0.205261503,0.844647096,0.331429309,-0.054204444,0.215734942,0.701250137,0.181916955,803.4432234,789.3406593,778.4615385,803.040293,714.3956044,-0.420166,0.095886,0.911743,5.024414,-6.848755,-4.673004,1,1,1,1,1,65,
43:39.4,-0.309626183,-0.515844122,-0.433957823,-0.174079709,0.100664583,-0.269461439,-0.47568694,0.123326022,0.36906906,0.138954446,0.027149939,0.424951636,0.231166676,0.268282007,0.79664092,0.28787129,-0.109892305,0.098703448,0.462046027,0.150865862,799.010989,788.9377289,789.3406593,797.3992674,653.956044,-0.416748,0.10199,0.911072,5.054321,-7.416992,-3.813171,1,1,1,1,1,65,
43:40.4,,,,,,,,,,,,,,,,,,,,,,,,,,,,,,,,,,,,,,/muse/elements/blink
43:40.4,-0.330982283,-0.402791113,-0.315936874,-0.303257464,-0.000670265,-0.495395391,-0.456997467,-0.046663344,0.148061831,0.014820839,-0.115312741,0.388368647,0.269761676,0.276289887,0.752049522,0.253390234,-0.088362874,0.039502385,0.412222293,0.067306911,806.6666667,791.3553114,780.4761905,807.8754579,656.3736264,-0.427795,0.129333,0.910278,4.807587,-7.252502,-4.665527,1,1,1,1,1,60,
43:41.4,-0.467106067,0.00484861,-0.429700808,-0.010903741,-0.140785231,-0.102893414,-0.534303376,-0.253482405,-0.009420989,0.064348205,-0.047011824,0.193939184,0.094026008,0.226041524,0.797312886,0.238269708,-0.27923834,0.129336033,0.506181603,0.034736587,791.3553114,787.3260073,786.5201465,786.9230769,675.7142857,-0.415161,0.127014,0.90979,5.704803,-8.00766,-4.015045,1,1,1,1,1,60,
43:42.4,-0.000500341,-0.339245145,-0.475348062,0.069139069,0.024975264,-0.264959583,-0.245988597,-0.133778197,0.082286072,0.294416942,0.173846722,0.225056539,0.092264679,0.166465569,0.593020733,0.253521878,-0.122547649,0.022418125,0.340816196,0.018859512,803.4432234,792.1611722,799.010989,805.8608059,866.3003663,-0.423767,0.143555,0.908752,4.643097,-6.654358,-5.17395,1,1,1,1,1,60,
43:43.4,-0.104573962,-0.087502491,-0.33594411,0.085658373,0.146841939,0.036919946,-0.090472362,-0.142157044,0.341015669,0.136117096,0.27422201,0.166297361,0.181523072,0.183063129,0.431500411,0.22466044,0.048548519,-0.023948373,0.170753319,0.131305727,750.6593407,797.3992674,803.4432234,757.1062271,819.1575092,-0.434814,0.14093,0.901245,6.803894,-7.476807,-10.086212,1,1,1,1,1,60,
43:44.4,-0.209968591,0.123318085,0.086315038,-0.183751814,0.231998211,0.038581583,0.040325903,-0.167083669,0.306512471,0.158518342,0.446461025,0.034071379,0.276996042,0.2217214,0.557628577,0.24044459,0.102602108,-0.068321768,0.420048282,0.202097949,800.2197802,788.1318681,790.5494505,799.010989,802.2344322,-0.43988,0.125977,0.902954,4.172058,-5.256195,-6.101074,1,1,1,1,1,60,
43:45.4,-0.092814658,-0.041713002,0.096240681,0.365248354,-0.108280577,-0.071344265,-0.080513284,0.308200555,0.538587287,0.269638842,0.409975153,0.493383112,0.244936376,0.121347549,0.481635246,0.437953033,-0.028105719,-0.096423688,0.326521347,0.02500976,803.040293,787.3260073,801.025641,808.2783883,992.4175824,-0.44812,0.12384,0.895081,4.807587,-6.310425,-5.031891,1,1,1,1,1,60,
43:46.4,-0.061054982,-0.013700961,-0.044837793,0.299329075,0.011255827,-0.419445379,-0.110324365,0.308742705,0.536080354,0.215174915,0.262987097,0.478999109,0.236563962,0.178568943,0.519442989,0.307602151,-0.013452494,0.014451723,0.410618665,-0.043793665,798.2051282,791.7582418,787.3260073,795.7875458,705.5311355,-0.449524,0.135925,0.897217,4.80011,-6.048737,-4.059906,1,1,1,1,1,60,
43:47.5,-0.094138046,-0.143279498,0.025767641,-0.108013585,0.063957533,-0.51389747,-0.119745867,0.002142252,0.45002399,-0.139644482,0.342319906,0.187848272,0.023786383,0.025227387,0.564356384,0.213641273,-0.027409663,0.028235536,0.276868282,-0.02336436,790.952381,788.1318681,803.8461538,799.8168498,458.5347985,-0.456543,0.130249,0.892639,4.523468,-6.886139,-3.506622,1,1,1,1,1,60,
43:48.4,-0.030442439,-0.389873622,0.040553168,0.022706402,0.053895753,-0.211554311,-0.027578597,0.03778701,0.161280675,-0.032071336,0.475773325,0.174033044,0.146117829,0.151439888,0.6606235,0.350653024,-0.036954978,0.035098589,0.338165269,-0.003381452,799.010989,791.3553114,800.6227106,801.8315018,722.0512821,-0.454163,0.124084,0.893005,4.80011,-7.372131,-4.897308,1,1,1,1,1,60,
43:49.4,-0.170663129,-0.093643842,0.027096511,-0.164086773,0.056759434,-0.368570656,-0.083930465,-0.149667106,0.609282198,-0.037634985,0.430372565,0.28521563,0.251267144,0.355513085,0.773503977,0.368081393,-0.025416416,-0.043450406,0.279724153,0.053233619,794.5787546,789.7435897,799.010989,797.8021978,674.1025641,-0.455017,0.123779,0.896729,5.308533,-7.162781,-4.059906,1,1,1,1,1,60,
43:50.4,-0.103325946,-0.221673421,-0.089379327,-0.299898786,0.061305328,-0.301045267,-0.112989277,-0.302713502,0.636639594,0.043437699,0.440890775,0.413172067,0.238931668,0.376885602,0.911007244,0.255263135,-0.237402671,-0.093276507,0.735119244,0.105324925,801.025641,792.1611722,797.8021978,796.1904762,693.4432234,-0.454529,0.127075,0.890625,5.069275,-7.035675,-4.658051,1,1,1,1,1,55,
43:51.4,0.199685346,-0.082889322,0.259777275,0.007538056,0.149335977,-0.250751308,0.093059401,0.155415158,0.121858704,0.154351816,0.469336032,0.474425683,0.284108408,0.285022171,0.771606728,0.24785656,-0.290727656,-0.08977295,0.645335968,0.138503286,807.0695971,793.3699634,798.6080586,804.6520147,572.967033,-0.452942,0.133545,0.895325,4.732819,-7.618866,-4.157104,1,1,1,1,1,55,
43:52.4,0.543310714,-0.047230192,-0.057880872,0.301652184,0.619825712,-0.393128644,0.099544499,0.369533827,0.535558861,0.209031672,0.207057757,0.572697973,0.405521029,0.103677563,0.570810577,0.30791756,-0.292178445,0.005822012,0.591521986,0.164677449,796.5934066,791.7582418,792.5641026,801.4285714,807.4725275,-0.445862,0.136597,0.898193,4.501038,-6.003876,-4.291687,1,1,1,1,1,55,
43:53.4,0.036521993,-0.042578999,-0.089165905,0.016058629,0.387523542,-0.314390772,-0.159929893,0.086826628,0.602378352,0.165285853,0.157242614,0.515302772,0.166516631,0.153217005,0.622004622,0.156199001,-0.225698177,-0.037226014,0.43437337,0.108462604,797.3992674,789.3406593,792.967033,805.8608059,758.3150183,-0.443359,0.145386,0.89856,4.299164,-7.663727,-4.82254,1,1,1,1,1,55,
43:54.4,-0.095249489,-0.221752228,-0.030888885,0.328960208,0.170270293,-0.189912472,-0.306210971,0.103759325,0.367601925,-0.026777625,0.163346023,0.3078205,0.177907457,0.157010321,0.704814973,0.19113092,-0.141918001,0.050800923,0.452827401,-0.028453788,802.6373626,780.8791209,803.040293,798.2051282,508.0952381,-0.440857,0.142456,0.900269,4.575806,-7.170258,-4.590759,1,1,1,1,1,55,
43:55.4,-0.112679882,-0.102436592,-0.148140018,-0.115748589,-0.04290318,-0.030032696,-0.252645919,-0.091051355,0.21179417,0.124671286,0.278840292,0.218667821,0.16350348,0.171489927,0.66746913,0.346557069,-0.211026904,0.026837615,0.377197905,-0.06182874,793.3699634,781.6849817,798.6080586,790.5494505,681.7582418,-0.438965,0.151306,0.8974,4.867401,-7.289886,-4.493561,1,1,1,1,1,55,
43:56.4,-0.146371673,-0.255969813,0.031186223,-0.374838474,0.097220626,0.036083418,-0.145176462,0.037803517,0.263357303,0.143326682,0.211570339,0.307807694,0.263277372,0.232353658,0.65872063,0.324882102,-0.173011702,-0.096897643,0.357093476,0.004447456,800.2197802,790.5494505,811.9047619,803.040293,840.9157509,-0.438354,0.144836,0.894958,4.882355,-6.116028,-4.665527,1,1,1,1,1,55,
43:57.4,0.061599702,-0.430449484,0.083717877,0.054604604,0.140648106,-0.266325148,-0.188157915,0.031333147,0.397897151,-0.126230529,0.145193532,0.234059564,0.359988816,0.166826208,0.865463444,0.17969661,-0.158006903,-0.214463516,0.437767999,0.083065133,808.6813187,803.8461538,794.5787546,804.6520147,725.2747253,-0.439392,0.150696,0.898682,5.106659,-6.669312,-4.329071,1,1,1,1,1,55,
43:58.4,0.012863046,-0.523464265,-0.474223755,-0.057020724,0.193303704,-0.241954186,0.023081884,0.060898653,0.571296538,0.153112217,0.213145665,0.094853568,0.222310814,0.186292402,0.615533174,0.293278919,-0.014715346,-0.132851609,0.305350713,0.069839851,802.2344322,794.1758242,798.6080586,794.1758242,774.8351648,-0.456848,0.153259,0.887695,5.368347,-6.108551,-5.869293,1,1,1,1,1,55,
43:59.4,-0.300711413,-0.437823312,-0.490197365,-0.266093871,0.162651889,-0.396962329,-0.195694555,0.089658084,0.538213419,0.252376388,0.221867704,0.251442121,0.257087811,0.14970548,0.501420348,0.360488404,-0.013490453,-0.112586248,0.355188586,0.093905167,793.3699634,794.5787546,803.8461538,799.8168498,760.3296703,-0.446838,0.164978,0.895569,5.144043,-7.342224,-5.069275,1,1,1,1,1,55,
44:00.4,0.115139265,0.136015891,0.048422856,-0.131867913,0.252674517,-0.163385715,-0.148584732,0.011542199,0.290238387,0.131415364,0.230262861,-0.036989994,0.312381079,0.150377332,0.770920937,0.403799569,-0.017124833,0.016743973,0.473965569,0.040595352,809.8901099,796.1904762,789.3406593,809.0842491,673.6996337,-0.435913,0.159241,0.89447,4.508514,-7.207642,-4.777679,1,1,1,1,1,55,
44:01.4,0.521863554,-0.137851524,0.145259152,0.538314882,0.452028086,-0.062314145,-0.115001847,0.315779718,-0.162466285,0.471115786,0.286860461,0.483105,0.439578988,0.534337827,1.072853036,0.379958367,0.014969523,0.326077914,0.781709373,0.095003774,801.025641,788.1318681,802.6373626,808.2783883,1144.322344,-0.432617,0.156372,0.899719,5.166473,-6.422577,-4.874878,1,1,1,1,1,60,
44:02.4,0.719942711,0.412600922,0.069414715,0.468501651,0.683751204,0.099765538,-0.348891732,0.292774747,0.669340295,0.461640379,0.233409029,0.878649802,0.425329417,0.433880389,1.153145132,0.436293349,0.084201418,0.152082527,0.860777041,0.103330054,801.8315018,792.1611722,788.5347985,806.6666667,719.6336996,-0.432068,0.152649,0.903992,5.129089,-6.95343,-3.925323,1,1,1,1,1,60,
44:03.4,1.159050057,0.900742459,0.006756324,0.873197594,1.076405607,0.495687096,-0.443294258,0.612816372,0.739091186,0.052806011,0.058213227,0.904014202,0.349770795,0.366753217,1.115475034,0.429947586,0.121216699,0.159577487,0.916705772,0.133253132,801.8315018,783.2967033,801.8315018,801.8315018,706.7399267,-0.429626,0.145264,0.907166,4.695435,-7.536621,-3.887939,1,1,1,1,1,60,
44:04.4,0.293971975,0.30437393,0.006756324,1.094683599,-0.40085241,0.302638697,-0.443294258,0.808272019,0.513915302,0.385871818,0.058213227,0.864065152,0.408252655,0.403411767,1.115475034,0.439385363,-0.012745736,0.403129786,0.916705772,0.221408387,799.8168498,790.1465201,802.6373626,796.996337,834.0659341,-0.430176,0.149658,0.906006,4.216919,-6.557159,-5.630035,1,1,1,1,1,60,
44:05.4,0.550133971,0.078492857,-0.215344315,0.275859301,-0.025289807,0.197601372,-0.143268492,0.026763837,0.628405301,0.322040464,0.325752251,0.627607458,0.370072078,0.370919126,0.978428139,0.448182409,0.013648856,0.25094549,0.699027083,0.167736804,800.6227106,784.9084249,794.1758242,805.8608059,759.1208791,-0.422729,0.144653,0.904724,4.61319,-6.781464,-4.515991,1,1,1,1,1,60,
44:06.4,0.233607163,-0.297496205,-0.038340039,0.172681272,0.127560044,0.031527005,-0.213247733,-0.01709973,0.376691968,0.308813287,0.394306813,0.666825447,0.272591046,0.409171724,0.867078234,0.223508957,0.003816355,-0.066033286,0.531486268,-0.029571259,806.2637363,796.996337,802.2344322,799.010989,697.0695971,-0.425537,0.146057,0.90625,5.413208,-6.691742,-3.342133,1,1,1,1,1,60,
44:07.4,-0.201103858,-0.295302062,0.143534671,0.008476077,-0.014110367,-0.212164394,0.010217943,-0.017389149,0.217299738,0.109610265,0.35898194,0.464155402,0.255479729,0.302737017,0.614469248,0.237677261,0.1535042,-0.006536164,0.480017138,-0.070772005,796.5934066,790.952381,794.1758242,794.5787546,751.4652015,-0.439087,0.158569,0.896362,5.001984,-7.155304,-4.47113,1,1,1,1,1,60,
44:08.5,-0.167455284,-0.163353482,-0.088155394,-0.024227082,0.009304164,-0.106502427,-0.20220172,-0.026594104,0.244879419,0.073560276,0.235091744,0.332815818,0.303974245,0.119781991,0.521986041,0.302924998,0.124191585,-0.009416066,0.439204791,0.125604074,803.040293,785.7142857,793.7728938,794.1758242,738.1684982,-0.445251,0.15332,0.894836,4.957123,-7.559052,-3.626251,1,1,1,1,1,60,
44:09.4,-0.132902843,0.003602393,-0.278015758,0.120739727,-0.135476404,-0.380202092,-0.306277679,0.077539611,0.104467229,0.292034404,0.254378032,0.127350083,0.272533044,0.10708748,0.531341701,0.288395833,0.064485142,-0.160481592,0.352305078,0.144433857,796.1904762,789.3406593,780.8791209,788.9377289,705.5311355,-0.443298,0.145325,0.895264,4.321594,-7.962799,-3.200073,1,1,1,1,1,60,
44:10.4,0.376431338,0.241684746,-0.195590151,0.349871739,0.288290986,-0.20980703,-0.122407757,0.273330051,0.587031008,0.287866421,0.333932151,0.248654225,0.367474319,0.207130182,0.618898157,0.290362721,-0.012369118,-0.164076534,0.462764301,-0.006758816,800.6227106,794.5787546,785.3113553,810.6959707,1055.677656,-0.431274,0.150635,0.90155,4.889832,-6.908569,-4.785156,1,1,1,1,1,60,
44:11.4,0.209610781,-0.147370662,-0.433982644,0.046461074,0.064379679,-0.031340077,-0.355345711,0.012589549,0.604206313,0.366468434,0.29023823,0.307937405,0.343982599,0.148298878,0.730196587,0.199654899,0.023068414,0.052040048,0.488981594,0.033864382,799.8168498,801.8315018,797.3992674,799.4139194,811.0989011,-0.432495,0.150024,0.899902,4.949646,-6.138458,-4.000092,1,1,1,1,1,65,
44:12.4,-0.547216805,-0.259129114,-0.136843859,-0.40492699,-0.066632095,-0.105137829,-0.237981999,0.00071723,0.282946166,0.370171074,0.146556081,0.281745556,0.352895478,0.31884585,0.554832388,0.118869585,0.075520507,0.019238166,0.397736021,0.022222936,799.8168498,792.1611722,794.5787546,792.967033,724.0659341,-0.435364,0.148438,0.900085,5.106659,-6.564636,-3.028107,1,1,1,1,1,65,
44:13.4,-0.151067212,-0.347142243,-0.342041165,0.003467519,0.102899512,-0.099378908,-0.346348146,0.361115082,-0.077192928,0.083228888,0.219358372,0.613143273,0.304186514,0.18264743,0.529907078,0.124562261,0.095955881,-0.094699714,0.355964708,0.137021221,770,792.5641026,802.6373626,784.5054945,993.6263736,-0.440918,0.160095,0.889282,4.725342,-7.394562,-4.598236,1,1,1,1,1,65,
44:14.4,0.159802558,-0.348397294,-0.3127837,0.444630739,0.359808067,0.056813246,-0.11174856,0.288179156,0.619653144,0.087994232,0.265537722,0.590824401,0.152117795,0.14342969,0.635752805,0.220861956,0.042960127,0.013087566,0.467180009,0.109187246,804.6520147,796.5934066,802.2344322,797.8021978,713.992674,-0.437439,0.152893,0.896912,5.158997,-6.086121,-4.590759,1,1,1,1,1,65,
44:15.4,0.350493339,-0.160748012,-0.245677259,0.458268436,0.419255702,-0.038084667,-0.163137057,0.292811542,0.716248009,0.223029454,0.388336387,0.514401108,0.277869891,0.212896144,0.635486446,0.213993411,-0.029033007,-0.112593167,0.443891303,0.062684819,804.2490842,797.8021978,792.1611722,801.8315018,624.1391941,-0.431702,0.162842,0.901062,5.413208,-6.542206,-6.145935,1,1,1,1,1,65,
44:16.4,0.671552702,-0.296514774,0.02052396,0.639698692,0.5941164,-0.217737229,-0.189723593,0.396094157,0.642497051,0.1799937,0.3160698,0.49353481,0.365508562,0.320636187,0.815536846,0.298231006,-0.049570805,-0.044622631,0.51509508,0.120944417,796.1904762,781.2820513,800.2197802,808.2783883,983.956044,-0.437988,0.164246,0.898132,5.136566,-7.499237,-4.366455,1,1,1,1,1,65,
44:17.4,-0.034927055,0.041692766,-0.275984893,0.134850395,0.041901662,-0.28947076,-0.415975378,-0.049476023,0.451085212,0.154373284,-0.017268159,0.239964158,0.266552924,0.266390209,0.730485484,0.365466446,-0.063489469,0.105422699,0.388643168,0.233053512,796.1904762,794.5787546,795.3846154,795.3846154,788.5347985,-0.443726,0.168762,0.892761,4.777679,-5.592651,-4.231873,1,1,1,1,1,65,
44:18.4,-0.228372253,0.066337923,-0.620951409,-0.225931172,0.050834502,-0.116978504,-0.440003022,-0.152093014,0.374713655,0.305722919,0.058108842,0.292625253,0.339815054,0.152374832,0.667163445,0.22830345,0.050906925,0.02339385,0.174452665,0.294007106,797.8021978,794.981685,788.9377289,797.8021978,679.3406593,-0.473572,0.157959,0.88208,4.650574,-4.740295,-5.973969,1,1,1,1,1,65,
44:19.4,-0.02627972,-0.241988964,-0.410908583,-0.163847127,0.064037721,-0.268266363,-0.347413699,0.099343491,0.363873552,0.30693718,-0.053648442,0.203408946,0.307296396,0.179247291,0.575798585,0.28093983,-0.143988997,-0.085470493,0.164592373,0.172110583,801.025641,787.3260073,794.5787546,802.6373626,998.8644689,-0.454895,0.153503,0.892822,5.158997,-7.798309,-2.871094,1,1,1,1,1,65,
44:20.4,0.076969119,-0.342616631,0.009990453,-0.042259516,0.135391285,-0.392205504,-0.25349535,0.207563585,0.61164834,0.392017157,-0.098508532,0.578603043,0.382403889,0.296890439,0.538850187,0.424216056,-0.100032336,-0.149931567,0.312422661,0.023455122,806.2637363,789.3406593,791.7582418,796.1904762,833.2600733,-0.44928,0.173584,0.889221,5.188904,-8.202057,-7.147827,1,1,1,1,1,65,
44:21.5,0.082147579,-0.066062325,-0.019971315,0.933720395,0.217332001,-0.377028113,-0.176290092,0.432239639,0.336758284,0.405596298,0.135807172,0.722873445,0.360530666,0.290220041,0.727536965,0.441658044,0.047124972,-0.005293335,0.609711884,0.027953214,794.5787546,780.8791209,790.5494505,780.4761905,830.4395604,-0.432068,0.167175,0.898193,4.583282,-7.716064,-4.717865,1,1,1,1,1,55,
44:22.4,-0.540306212,-0.356690713,-0.122391134,0.298112475,-0.00642575,-0.46174969,-0.063859493,0.044670785,0.973164045,0.218885588,0.192362188,0.846153318,0.445636549,0.324145194,0.951044057,0.472941182,0.014615431,0.060710303,0.654833838,0.072794096,759.9267399,799.010989,803.8461538,776.043956,1031.501832,-0.427612,0.153015,0.897705,4.605713,-7.970276,-4.201965,1,1,1,1,1,55,
44:23.4,-0.582545776,0.566269723,0.456117527,0.927575661,0.187888182,0.065373818,-0.232682782,0.555509566,1.100807682,0.30371514,0.076906167,1.19087989,0.370265992,0.213739416,0.845489605,0.310076063,-0.130405929,-0.077390345,0.41936256,-0.028666341,870.3296703,763.5531136,836.0805861,897.3260073,464.981685,-0.421204,0.149597,0.910767,4.740295,-6.609497,-3.977661,1,1,1,1,1,55,
44:24.4,-0.509046061,0.963806008,0.768830476,1.310428313,0.327678277,0.383464011,-0.271135476,0.857296894,1.097938572,0.313337921,0.234214926,1.174137491,0.307607025,0.184768353,0.701487537,0.210668187,-0.121398037,-0.055593993,0.548454558,-0.180018141,806.6666667,780.8791209,814.3223443,803.4432234,839.3040293,-0.423889,0.149475,0.90387,4.42627,-5.742188,-4.254303,1,1,1,1,1,55,
44:25.4,0.099305155,0.643636977,-0.058935899,1.040011249,0.112917385,0.027434604,-0.273930351,0.722856728,0.222075213,0.545312039,0.318678108,0.685104526,0.601604286,0.743715631,0.980325761,0.678083572,0.054712368,0.686355703,0.77192855,0.316160489,782.4908425,794.1758242,772.8205128,792.1611722,621.3186813,-0.426086,0.150085,0.904846,5.592651,-7.618866,-7.753448,1,1,1,1,1,55,
44:26.4,0.029854239,0.297886949,-0.427006472,-0.020555163,0.375593676,0.010534102,-0.261430868,0.121203942,0.506018658,0.392021518,0.392094847,0.369261785,0.482928174,0.593460933,1.031337503,0.605534963,0.057617783,0.44494738,0.681240691,0.190203784,800.2197802,792.1611722,806.2637363,807.4725275,724.4688645,-0.415771,0.148315,0.911133,5.293579,-5.480499,-3.656158,1,1,1,1,1,55,
44:27.4,-0.164069858,-0.150058998,-0.300285134,-0.053115878,0.189776092,-0.214293204,-0.151765781,-0.085412389,0.50177336,0.229882464,0.186177958,0.22136588,0.175237167,0.35059434,0.816577225,0.387844951,-0.017463597,0.095789859,0.598521773,0.132015723,801.025641,794.5787546,787.3260073,790.1465201,815.5311355,-0.418762,0.130249,0.909912,4.486084,-5.981445,-3.446808,1,1,1,1,1,55,
44:28.4,-0.113108213,-0.380503551,0.144458546,-0.143014555,0.154601598,-0.244234079,-0.163319934,0.206653228,0.433905822,0.217245201,0.316338268,0.301221848,0.244878429,0.222440731,0.77001054,0.423548786,-0.048815988,-0.059016648,0.531176608,0.14565457,817.1428571,792.967033,801.4285714,802.6373626,982.3443223,-0.437256,0.140564,0.900452,4.792633,-6.071167,-3.514099,1,1,1,1,1,55,
44:29.4,-0.116909395,-0.015437942,0.293059529,-0.077047622,0.002917417,-0.052118226,0.146964117,0.11239992,0.476213578,0.119980334,0.341496338,0.409456099,0.337580603,0.213057419,0.708492286,0.369963419,0.013948449,0.001181142,0.537527477,0.18817858,804.2490842,802.2344322,775.2380952,792.1611722,736.959707,-0.459473,0.131653,0.889099,5.158997,-6.190796,-3.551483,1,1,1,1,1,55,
44:30.5,0.083989996,0.083365519,0.125961078,0.305727667,-0.193374496,-0.061808045,0.086183663,0.061332422,0.473401906,0.3051007,0.312707479,0.523770391,0.271660411,0.247882358,0.550766821,0.189670489,0.157288838,0.007660012,0.534539249,0.135431028,797.8021978,790.952381,796.5934066,801.8315018,950.9157509,-0.454346,0.144104,0.894775,5.226288,-5.458069,-4.859924,1,1,1,1,1,55,
44:31.4,-0.212810805,0.006275336,-0.372886321,-0.001372285,-0.047216475,-0.084019832,-0.422786604,-0.383371337,0.552978162,0.285643724,0.367445122,0.324713141,0.27694482,0.282694495,0.515646147,0.424256192,0.192600231,-0.03275703,0.262113069,0.167248299,798.6080586,784.1025641,801.8315018,804.2490842,808.6813187,-0.452454,0.131409,0.896057,3.962708,-7.409515,-6.661835,1,1,1,1,1,55,
44:32.4,-0.160199089,-0.217017443,-0.088982518,-0.007824215,0.136142708,-0.10134487,-0.169707239,-0.036136819,0.59655187,0.186631961,0.326385513,0.340261796,0.367928086,0.221999514,0.541669451,0.333161041,0.089676403,-0.050456666,0.297424469,-0.046159534,799.4139194,793.7728938,778.4615385,792.1611722,713.1868132,-0.452637,0.133301,0.89386,5.278625,-6.826324,-4.889832,1,1,1,1,1,65,
44:33.4,0.144174696,-0.193477953,-0.007390627,0.16733963,0.242572521,-0.159455233,-0.179988248,0.024074553,0.676657787,0.240932744,0.428316052,0.358626349,0.397291018,0.067642769,0.548638487,0.397346857,-0.047940226,0.021650858,0.352987709,-0.051796018,800.2197802,789.7435897,808.2783883,804.2490842,743.4065934,-0.441284,0.136108,0.898254,4.725342,-8.015137,-4.373932,1,1,1,1,1,65,
44:34.5,0.707388833,-0.074369562,0.244337429,0.847589668,0.428644994,-0.123838805,0.004403776,0.419565751,0.478993658,0.180735693,0.522226147,0.400401094,0.303933426,0.18983893,0.628775651,0.400534755,-0.081676196,0.021316547,0.396089194,-0.009336644,807.4725275,791.3553114,800.6227106,806.6666667,881.2087912,-0.448242,0.134705,0.895935,4.605713,-6.916046,-4.643097,1,1,1,1,1,65,
44:35.4,-0.113124894,-0.270741765,-0.362014857,-0.215349388,0.11989019,-0.3218594,-0.308141178,0.048419755,0.388872878,-0.101417072,0.20711317,0.086459557,0.277569039,0.178887113,0.637953363,0.310819854,-0.02107202,0.043679907,0.383852783,-0.031109781,787.7289377,785.3113553,789.3406593,797.8021978,796.1904762,-0.444397,0.135071,0.897339,4.837494,-6.841278,-4.994507,1,1,1,1,1,65,
44:36.4,-0.174200156,0.010658651,-0.407351913,-0.005493935,-0.036166509,-0.439285195,-0.191391063,0.0962036,0.389549491,-0.231366854,0.205388593,0.172217393,0.322683349,0.096208199,0.677243113,0.334623784,0.003318892,0.067228153,0.215481832,-0.072899013,798.2051282,790.1465201,794.981685,802.2344322,1127.399267,-0.447449,0.133911,0.900146,4.762726,-6.856232,-4.239349,1,1,1,1,1,65,
44:37.5,-0.013462929,0.135170629,-0.556056716,-0.216537516,-0.196024942,-0.066235776,-0.189066593,-0.113148793,0.268118642,0.159351593,0.232403707,0.267150307,0.213448585,-0.04003534,0.68406938,0.210971684,-0.093622823,-0.128171333,0.305359351,-0.016259049,791.3553114,784.1025641,794.981685,794.981685,844.5421245,-0.44104,0.134766,0.903381,4.568329,-6.661835,-4.844971,1,1,1,1,1,65,
44:38.5,-0.307720414,-0.15327387,-0.284945563,-0.283071076,-0.280773515,-0.193529701,-0.089316693,-0.094680001,0.364504017,0.090978923,0.260258783,0.271576159,0.210800074,-0.040812515,0.663385241,0.311115502,-0.076951765,-0.099280392,0.271684089,0.074393033,809.0842491,807.8754579,790.1465201,811.0989011,754.6886447,-0.434631,0.133545,0.902893,4.762726,-8.119812,-4.658051,1,1,1,1,1,65,
44:39.4,-0.595527793,-0.117922478,-0.090847588,-0.146672738,-0.146082015,-0.272707074,-0.005063513,-0.193892526,0.454871226,0.088056059,0.45772533,0.371446641,0.309517899,0.113077643,0.526737051,0.194967354,-0.056835873,-0.226402504,0.286725595,-0.003278019,798.6080586,796.1904762,792.1611722,816.3369963,859.047619,-0.429749,0.131287,0.906067,4.501038,-6.78894,-4.486084,1,1,1,1,1,65,
44:40.4,-0.359341183,-0.328815062,-0.241586619,-0.169963865,-0.05087985,-0.343811765,-0.215195582,-0.189776784,0.413408078,0.058958743,0.251522443,0.283682402,0.332648768,0.172800337,0.545843813,0.232233816,-0.116962734,-0.117353423,0.240963008,0.02623203,794.981685,797.3992674,786.9230769,802.6373626,696.6666667,-0.426819,0.124023,0.913086,4.373932,-7.28241,-4.740295,1,1,1,1,1,65,
44:41.4,-0.281006527,-0.30271046,-0.314607348,-0.093245744,0.0881373,0.063070328,-0.342570652,0.006435497,0.258185169,0.162530527,0.225828089,0.304629282,0.232329744,0.136414836,0.574969616,0.250414154,0.170686229,0.020993884,0.363692096,-0.084429307,798.2051282,801.8315018,791.3553114,800.2197802,689.8168498,-0.437744,0.118408,0.905151,4.575806,-8.097382,-4.388885,1,1,1,1,1,65,
44:42.4,0.295461628,-0.020762825,0.118185828,0.348858132,0.225556851,0.129059133,-0.105458808,-0.071354819,0.683602425,0.226575839,0.227850009,0.689041807,0.443213143,0.126070127,0.709715761,0.386391898,0.139202687,-0.120205818,0.458482826,0.108710806,823.5897436,801.4285714,802.6373626,829.2307692,776.4468864,-0.422729,0.12323,0.913513,4.725342,-6.684265,-4.246826,1,1,1,1,1,55,
44:43.5,0.533743777,0.722915033,0.090626621,0.380294358,0.442783454,0.300513971,-0.070128311,-0.121328584,0.551294546,0.099089388,0.334332942,0.625751174,0.520075683,0.091588555,0.893117089,0.432832935,0.028238972,-0.092092366,0.753604074,0.190886988,802.6373626,792.967033,800.2197802,811.9047619,620.5128205,-0.412476,0.126282,0.911621,4.605713,-7.84317,-4.785156,1,1,1,1,1,55,
44:44.4,0.502285212,0.72339935,0.45601523,0.380294358,0.313768958,0.278766854,0.287329572,-0.121328584,0.707515267,0.393811918,0.415663391,0.625751174,0.406150092,0.142846152,0.862060782,0.432832935,0.061897958,0.036803438,0.688175855,0.190886988,804.2490842,792.5641026,780.4761905,805.4578755,1100.805861,-0.402283,0.125183,0.922485,4.859924,-8.022614,-4.187012,1,1,1,1,1,55,
44:45.4,,,,,,,,,,,,,,,,,,,,,,,,,,,,,,,,,,,,,,/muse/elements/blink
44:45.4,0.502285212,0.756774092,0.395727523,0.380294358,0.313768958,0.05003137,0.087069784,-0.121328584,0.707515267,0.417759722,0.423217173,0.625751174,0.406150092,0.278326598,0.972673671,0.432832935,0.061897958,0.007791446,0.705824414,0.190886988,811.9047619,782.0879121,803.8461538,826.8131868,1041.172161,-0.408142,0.128784,0.912292,5.001984,-6.968384,-4.07486,1,1,1,1,1,55,
44:46.4,0.502285212,0.387650763,-0.074555059,0.380294358,0.313768958,-0.055097168,-0.173716018,-0.121328584,0.707515267,0.077944421,0.498831081,0.625751174,0.406150092,0.36850384,0.920470181,0.432832935,0.061897958,0.054090811,0.888429503,0.190886988,786.9230769,782.4908425,792.1611722,791.3553114,541.5384615,-0.414307,0.131592,0.920105,5.188904,-6.886139,-6.437531,1,2,1,1,2,55,
44:47.4,-0.04591251,0.130541732,-0.107857875,0.025220627,0.263682194,0.273789428,-0.168188807,-0.219029609,0.133583005,0.118307877,0.528055792,-0.080356269,0.185732563,0.331463384,0.795130506,0.125730331,0.231450235,0.177032221,0.610996794,0.158046997,794.5787546,805.0549451,804.6520147,792.5641026,456.5201465,-0.404602,0.131775,0.918396,5.106659,-6.093597,-4.553375,1,1,1,1,1,55,
44:48.4,0.130800682,-0.18092726,-0.226475209,0.307356999,0.379680285,-0.096635241,-0.248889364,0.303186322,0.60526774,0.297808606,0.414482701,0.566914737,0.424245626,0.419817192,1.071134179,0.323468649,0.079957598,0.328375798,0.869863546,0.263037764,802.6373626,807.8754579,795.3846154,793.3699634,759.5238095,-0.413452,0.134338,0.914062,5.069275,-7.155304,-4.276733,1,1,1,1,1,55,
44:49.4,0.11539069,-0.034739619,0.091790842,0.099492528,0.138017256,0.005798397,-0.397779422,0.035450768,0.512975923,0.387163679,0.393196314,0.538172214,0.308696358,0.408738086,0.997180808,0.357535582,0.035098165,0.256239396,0.778055201,0.210278985,797.3992674,792.5641026,780.8791209,789.3406593,840.5128205,-0.426941,0.128418,0.907471,4.897308,-5.674896,-3.760834,1,1,1,1,1,55,
44:50.4,-0.026087138,-0.144950055,0.379562118,-0.192524877,-0.291973554,0.121338663,-0.249662989,-0.117887837,0.284196419,0.317240297,0.16809483,0.280082048,0.274291637,0.261759083,0.872043305,0.287064249,0.007578386,-0.071774711,0.373740746,0.17096324,806.6666667,799.4139194,805.8608059,817.1428571,1014.175824,-0.437866,0.129211,0.903564,5.375824,-5.286102,-5.158997,1,1,1,1,1,55,
44:51.4,0.01026372,-0.330537081,-0.18118038,0.240195167,-0.156615635,-0.028498753,-0.254920567,-0.026767892,0.261339663,0.062494431,0.081870864,0.35466984,0.31306694,0.276037085,0.80173884,0.292029941,-0.028256368,0.022825789,0.493529441,0.160816327,801.4285714,803.040293,800.2197802,814.7252747,1072.197802,-0.444885,0.123535,0.901001,5.024414,-6.422577,-1.996307,1,1,1,1,1,55,
44:52.4,0.169951507,-0.185124676,-0.351322062,0.164439587,-0.044038106,-0.103885263,-0.375260305,0.113455057,0.170492535,0.285088643,0.172005415,0.923201751,0.289314796,0.244812382,0.837481246,0.567719205,0.040087257,-0.043272655,0.523327717,0.272463255,807.4725275,797.8021978,792.5641026,809.4871795,688.6080586,-0.460876,0.181519,0.879456,5.099182,-4.4487,-0.844879,1,1,1,1,1,60,
44:53.4,-0.034529171,0.151655643,0.347543245,-0.599674299,0.211448424,-0.221103545,-0.290118574,0.085597953,0.364062569,0.3108489,0.348104402,0.88845515,0.326487578,0.210389097,0.771256619,0.489570227,-0.062153497,-0.102231551,0.362198991,0.407481451,775.6410256,788.9377289,814.7252747,784.9084249,1085.494505,-0.504578,0.177185,0.86322,4.276733,-6.093597,-7.409515,1,1,1,1,1,60,
44:54.4,-0.183488653,0.371450679,0.931652427,0.396868346,0.469306163,0.017246546,0.257613985,0.138644553,0.377150612,0.146150008,0.573911101,0.465535788,0.36740882,-0.010175021,0.700609839,0.250740074,0.140697845,0.004741994,0.361043468,0.135125261,799.4139194,787.3260073,797.3992674,805.8608059,1050.03663,-0.468262,0.147827,0.887268,4.067383,-8.493652,-7.760925,1,1,1,1,1,60,
44:55.4,-0.223678687,0.074066097,0.426902778,0.461592757,0.22590119,-0.010861325,0.295166942,0.233326265,0.306053061,0.248698337,0.381106147,0.500558605,0.319980085,0.159355934,0.496376485,0.227783485,0.168194078,-0.003156333,0.301122567,0.186421273,811.5018315,793.7728938,794.1758242,809.8901099,683.7728938,-0.472351,0.150879,0.891724,4.187012,-8.695526,-6.624451,1,1,1,1,1,60,
44:56.4,-0.134885001,-0.144812556,0.696907722,-0.007223316,-0.1786555,-0.092902418,0.134294033,0.017334492,0.294208789,0.216593229,0.232278016,0.481950701,0.423041482,0.211239028,0.48686746,0.423345825,0.119631317,-0.168473387,0.282714763,0.362779726,788.5347985,786.9230769,807.0695971,809.4871795,1144.725275,-0.488281,0.130371,0.888062,5.121613,-5.615082,-4.628143,1,1,1,1,1,60,
44:57.4,-0.11721445,-0.280774029,0.7731874,0.015791215,-0.216719379,-0.236820904,0.126886102,-0.080232059,0.547887841,0.179022765,0.375344601,0.48739598,0.306302851,0.039940211,0.571784984,0.349986428,0.073062401,-0.156236514,0.233768807,0.277344516,798.2051282,799.010989,795.7875458,793.3699634,988.3882784,-0.470276,0.141846,0.875122,4.269257,-6.160889,-1.869202,1,1,1,1,1,60,
44:58.4,-0.344596804,-0.355987315,0.372338144,-0.126144322,-0.046859102,-0.372486869,0.121938226,0.371883541,0.521298456,0.137781694,0.402018224,0.63232462,0.285813948,0.019444043,0.586963043,0.368688869,0.201574849,-0.096369989,0.247947663,0.127113007,805.0549451,795.7875458,800.6227106,806.2637363,714.3956044,-0.482605,0.157898,0.874756,4.972076,-7.910461,-4.949646,1,1,1,1,1,60,
44:59.4,-0.011419186,0.073632925,0.018858656,-0.011030515,0.178463462,-0.143694209,-0.044527135,0.446699587,0.583425105,0.40264478,0.534556248,0.599710409,0.547111932,0.156885462,0.659221139,0.341556641,0.246309244,-0.150206839,0.388574068,0.198741319,811.9047619,794.5787546,797.3992674,820.3663004,1054.468864,-0.451843,0.144836,0.892761,5.031891,-7.977753,-6.355286,1,1,1,1,1,60,
45:00.4,0.270924998,0.277576115,-0.141335536,0.124098082,0.175944882,-0.297731928,-0.03909155,0.163391549,0.514701243,0.415580504,0.396700799,0.362702809,0.607921092,0.323638554,0.886877893,0.243257747,0.196719109,0.022456764,0.539796575,0.215184584,796.996337,785.7142857,809.0842491,812.3076923,1020.622711,-0.455933,0.136719,0.886108,5.054321,-6.213226,-5.203857,1,1,1,1,1,60,
45:01.4,-0.175650952,0.053259993,0.100619716,0.328820036,0.068796615,0.096015794,0.078013679,0.136138581,-0.02178381,0.408949026,0.685748248,0.42877703,0.387621698,0.555804163,0.912191893,0.35896488,0.043386409,0.297367484,0.56572519,0.126302725,803.040293,809.4871795,791.7582418,803.8461538,737.7655678,-0.456116,0.132019,0.889343,4.665527,-8.00766,-4.179535,1,1,1,1,1,60,
45:02.4,0.506828519,0.095199494,0.509106957,0.830597341,0.197884053,0.372466391,0.207062947,0.508160626,0.418461949,0.69023292,0.835749374,0.591422641,0.566273394,0.640449112,1.045512678,0.294030313,0.253472448,0.4598718,0.707986251,0.143987998,810.2930403,801.4285714,794.5787546,809.4871795,1081.062271,-0.455688,0.12738,0.894531,4.299164,-7.200165,-4.299164,1,1,1,1,1,60,
45:03.4,0.88799302,0.070303136,0.093521762,1.057604238,0.543188774,0.175562348,0.112729851,0.757597415,0.637107788,0.410842053,0.51884438,0.587578558,0.768222532,0.545806586,0.995966104,0.266686911,0.122410709,0.404685989,0.780067564,0.169263506,807.8754579,801.025641,834.4688645,809.0842491,442.8205128,-0.455688,0.127747,0.892029,3.439331,-3.087921,-2.886047,1,1,1,1,1,55,
45:04.4,0.555633118,0.127243013,0.054039087,0.749004679,0.384026244,0.021010963,0.089836632,0.629832427,0.578398613,0.469927662,0.425705648,0.727535823,0.583802145,0.605693963,1.203640607,0.472862596,0.124134825,0.454564776,0.863291009,0.238421776,801.025641,795.3846154,800.2197802,802.2344322,757.5091575,-0.454285,0.121155,0.893005,4.844971,-7.252502,-5.203857,1,1,1,1,1,55,
45:05.4,,,,,,,,,,,,,,,,,,,,,,,,,,,,,,,,,,,,,,/muse/elements/blink
45:05.4,0.014049527,0.0532246,-0.007518686,0.217909737,0.022299791,-0.037628483,0.064171692,0.242178835,0.213683333,0.425173704,0.46251473,0.398455274,0.597392172,0.575372663,1.226394847,0.545148869,0.178171767,0.375489185,0.80134608,0.238533146,845.7509158,758.3150183,815.5311355,861.4652015,821.978022,-0.449646,0.12323,0.896667,4.844971,-7.514191,-5.286102,1,1,1,1,1,55,
45:06.4,-0.378125779,-0.067129858,0.231900932,-0.250273983,0.019307554,0.00303269,0.031594534,-0.049893748,0.127581451,0.079347556,0.578096624,0.378962876,0.692479552,0.579025025,1.010470322,0.641182095,0.070619216,0.420939465,0.809436399,0.255469605,792.967033,797.8021978,792.1611722,800.6227106,923.9194139,-0.449768,0.117004,0.895264,4.643097,-6.4151,-5.323486,1,1,1,1,1,55,
45:07.4,-0.003363371,0.216523799,0.234029141,0.271512547,-0.016125021,0.030073546,-0.206411052,0.153386372,0.333463622,0.433928134,0.492450827,0.282884159,0.463302534,0.686771846,0.970882188,0.335126767,0.222560706,0.377962187,0.797845669,0.277142886,795.3846154,783.2967033,796.1904762,799.8168498,639.047619,-0.441284,0.11908,0.899597,4.994507,-8.867493,-3.917847,1,1,1,1,1,55,
45:08.4,,,,,,,,,,,,,,,,,,,,,,,,,,,,,,,,,,,,,,/muse/elements/blink
45:08.4,-0.134011652,0.019954,-0.193653788,0.219973125,0.029810631,-0.07669625,-0.279994918,-0.028587997,0.404872951,0.361407143,0.039758518,0.577405881,0.38176266,0.696295397,1.053357071,0.36976026,0.169048871,0.437412445,1.015118967,0.327369112,808.6813187,779.6703297,776.043956,795.3846154,764.7619048,-0.5,0.087036,0.885742,-8.590851,-5.286102,3.005676,1,1,1,1,1,55,
45:09.4,0.194221572,0.458357647,-0.407444467,0.300233683,0.157397938,0.028815175,-0.107370716,-0.173233058,0.26944114,0.327873514,0.006103454,0.539477563,0.336503159,0.844834428,1.216338528,0.41987511,0.241568053,0.406599854,1.178357746,0.245761036,809.4871795,782.8937729,816.3369963,792.967033,782.4908425,-0.460083,0.032349,0.908325,6.168365,-12.418976,-5.001984,1,1,1,1,1,55,
45:10.4,0.639745351,0.26163155,-0.407444467,0.772631482,0.153127902,-0.217254371,-0.107370716,0.263066524,0.835859769,0.392476882,0.006103454,0.690067555,0.934566094,0.962354181,1.216338528,0.896586932,0.463433458,0.694732851,1.178357746,0.542451173,801.025641,792.967033,815.1282051,796.5934066,669.2673993,-0.3526,0.091248,0.953857,8.314209,-6.198273,-9.570312,1,1,1,1,1,55,
45:11.4,0.684191121,0.297840196,-0.407444467,0.763738398,0.288749303,-0.126389198,-0.107370716,0.261879069,0.869941604,0.513462287,0.006103454,0.810060002,0.793591558,1.036765877,1.216338528,0.810647082,0.433795995,0.825215249,1.178357746,0.479244385,791.3553114,782.4908425,772.8205128,799.4139194,922.7106227,-0.19635,0.143433,0.975037,1.846771,-11.035767,-15.424652,1,1,1,1,1,55,
45:11.9,,,,,,,,,,,,,,,,,,,,,,,,,,,,,,,,,,,,,,/muse/elements/blink
45:12.4,0.224867006,0.475656378,-0.407444467,0.40662285,0.491157179,0.161111731,-0.107370716,0.396592303,0.282146554,0.614798667,0.006103454,0.693212497,0.471017074,0.898018791,1.216338528,0.489128205,0.340253502,0.633757903,1.178357746,0.506299969,793.7728938,790.1465201,763.956044,800.6227106,920.6959707,0.070557,0.066284,1.024658,7.073059,-13.226471,5.256195,1,1,1,1,1,55,
45:13.4,0.887418122,0.589662685,-0.407444467,0.83774088,0.465280786,0.141900322,-0.107370716,0.224350333,0.773852706,0.646324371,0.006103454,0.738730275,0.579135824,0.942205924,1.216338528,0.692250142,0.458227075,0.516660376,1.178357746,0.280264378,823.1868132,803.8461538,794.1758242,824.7985348,817.1428571,0.030823,0.082886,1.021729,6.160889,-1.061707,-3.9328,1,1,1,1,1,55,
45:14.4,0.913710591,0.372365909,-0.407444467,0.750847829,0.618574166,0.118628592,-0.107370716,0.241770063,0.882326728,0.64774222,0.006103454,0.738730275,0.724080488,0.802909483,1.216338528,0.668608464,0.540001125,0.595291924,1.178357746,0.196133942,796.996337,805.0549451,795.7875458,796.5934066,691.4285714,-0.130737,0.118896,1.005371,3.469238,-5.158997,-3.641205,1,1,1,1,1,55,
45:15.4,0.886043016,0.41755108,-0.407444467,0.550460484,0.553263022,0.236382102,-0.107370716,0.442364476,0.805824985,0.71705414,0.006103454,0.439086058,0.905503006,0.865942728,1.216338528,0.750085642,0.626672435,0.654638723,1.178357746,0.444406173,805.0549451,788.9377289,781.6849817,801.025641,810.6959707,-0.091003,0.098877,1.004883,4.994507,-8.620758,-3.035583,1,1,1,1,1,55,
45:16.4,0.619187108,0.117334515,0.740227855,0.313882414,0.156238834,0.237316028,-0.081461471,0.298495322,0.716027825,0.731156116,0.348719884,0.428367146,0.587637524,0.902161492,0.98357352,0.674219597,0.342573537,0.404821348,0.63045586,0.319406444,792.967033,794.981685,799.010989,791.3553114,660.8058608,-0.066101,0.111938,1.01355,4.927216,-7.013245,-3.529053,1,1,1,1,1,55,
45:17.4,0.007641152,-0.107031281,0.525313164,0.04568481,-0.135921066,-0.310941431,-0.059525233,0.056005197,0.200051059,0.503225975,0.448911134,0.32524169,0.377525017,0.616885298,0.864421692,0.437240358,0.104607647,0.488772181,0.605299795,0.209335416,793.7728938,796.5934066,780.0732601,804.2490842,880.4029304,-0.071472,0.112915,1.010254,4.859924,-5.727234,-4.740295,1,1,1,1,1,55,
45:18.4,-0.052539624,-0.431324095,-0.087832165,-0.11231125,-0.150248888,-0.322041184,-0.133996183,-0.069802037,0.291003273,0.225040019,0.384669735,0.301113303,0.224684005,0.368791857,0.501055006,0.253276778,0.116239485,0.28540467,0.499618863,0.026283985,800.6227106,795.3846154,785.7142857,807.4725275,651.9413919,-0.079956,0.119629,1.013428,4.889832,-6.302948,-4.9646,1,1,1,1,1,55,
45:19.4,-0.198058147,0.264927466,0.543324102,0.364073594,-0.312341293,0.298283093,0.377092757,0.09158223,0.000251209,0.399311486,0.62168228,0.166306427,0.215887302,0.342512901,0.491150312,0.32969917,-0.125485391,0.164486089,0.357066415,0.173173322,796.1904762,784.5054945,792.1611722,789.7435897,828.021978,-0.052856,0.111633,1.011841,2.190704,-7.073059,-1.749573,1,1,1,1,1,55,
45:20.4,-0.070694079,0.48468081,0.775904296,0.536380471,0.329228748,0.478503419,0.392959798,0.095521046,0.24478922,0.590778257,0.621254332,0.246588396,0.409908254,0.416164791,0.640513854,0.48015301,0.068503065,0.291037148,0.485785723,0.290519983,792.5641026,801.025641,782.0879121,790.952381,704.7252747,-0.048401,0.130859,1.015137,4.912262,-6.332855,-3.783264,1,1,1,1,1,55,
45:21.4,-0.048793409,0.042558852,0.559874561,0.07013389,0.255422057,0.11515321,0.101974838,-0.129343308,0.308097127,0.372738453,0.546706276,0.501485625,0.412102062,0.465395032,0.602450545,0.465873145,0.0398956,0.271686591,0.554778319,0.193105957,808.2783883,806.2637363,788.9377289,807.0695971,697.0695971,-0.057739,0.127991,1.010742,4.142151,-7.245026,-4.089813,1,1,1,1,1,55,
45:22.4,-0.025049142,-0.214020124,0.244413447,-0.046456119,0.037780908,0.023014384,-0.080369762,0.041091783,0.065417776,0.37079864,0.227428964,0.498747165,0.531489917,0.428192508,0.771183382,0.416305158,0.056878886,0.310203447,0.453944241,0.163591269,804.2490842,792.5641026,778.8644689,796.5934066,668.0586081,-0.057251,0.127136,1.007568,4.852448,-7.67868,-4.830017,1,1,1,1,1,55,
45:23.4,-0.140867531,-0.734348996,-0.229306871,-0.500030317,0.08483035,-0.266145203,-0.111856758,-0.261072127,0.185971991,0.373231923,0.214685674,0.330859567,0.44390484,0.337619427,0.863475847,0.326903357,-0.20845508,0.135206097,0.24347857,-0.059715679,801.8315018,799.010989,802.2344322,803.8461538,965.4212454,-0.034973,0.142334,1.005676,3.798218,-8.17215,-3.409424,1,1,1,1,1,60,
45:24.4,0.145971758,-0.141727561,0.671967892,-0.115584484,0.120822588,-0.183459693,0.429707197,-0.018916948,0.274543671,0.19519132,0.403528599,0.491573331,0.366907421,0.377266647,0.649765874,0.353369117,0.018668542,0.12534119,0.552877313,-0.108089879,792.5641026,805.0549451,789.7435897,788.9377289,838.0952381,-0.025513,0.126465,1.012085,5.495453,-6.048737,-4.456177,1,1,1,1,1,60,
45:25.4,0.107839057,-0.05140067,0.972454799,-0.193395964,0.02857963,-0.020760636,0.546289412,0.131830873,0.290066571,0.205767751,0.978684252,0.459838724,0.370702771,0.333906184,0.676016772,0.310693643,0.08703126,0.101377251,0.564848134,0.113604144,788.9377289,805.4578755,776.4468864,794.5787546,747.4358974,-0.03717,0.125183,1.011719,4.11972,-8.052521,-5.076752,1,1,1,1,1,60,
45:26.4,0.347719858,0.139041565,1.101669584,0.226326304,0.031435759,0.256912978,0.505446726,0.144127071,0.469265338,0.601372283,1.014982104,0.364319999,0.396340493,0.419985948,0.677376782,0.371437903,0.262392706,0.068956601,0.510157145,0.047632555,794.981685,786.5201465,815.9340659,793.3699634,851.7948718,-0.039734,0.121399,1.009094,5.00946,-8.134766,-3.72345,1,1,1,1,1,60,
45:27.4,0.20549445,0.387532869,0.911856468,0.120537902,0.432716725,0.41705395,0.435875914,0.075304404,0.497273449,0.732146817,0.800580095,0.359482224,0.416321906,0.515477097,0.865854857,0.418535246,0.17091582,0.077302619,0.116123743,0.033456111,796.1904762,797.3992674,812.7106227,796.996337,631.3919414,-0.046204,0.130859,1.014648,4.927216,-7.454376,-3.858032,1,1,1,1,1,60,
45:28.4,0.402619768,-0.092138357,0.870248593,0.140998043,0.210575825,0.007101272,0.391174401,0.105155017,0.503478151,0.6976183,0.439623002,0.229514038,0.34272353,0.355493405,0.724047232,0.282632497,0.051412223,-0.151943139,0.180674801,-0.12479926,800.2197802,790.5494505,901.3553114,795.3846154,647.1062271,-0.029419,0.129822,1.00946,4.605713,-6.302948,-5.046844,1,1,1,1,1,60,
45:29.4,0.951128398,0.510718804,0.910023469,0.305783058,0.265814483,0.242901688,0.450591275,0.098315517,0.546041565,0.855072055,0.298120966,0.256135564,0.410016086,0.290408867,0.566539804,0.354154792,0.109020665,0.318685751,0.262560839,0.046220704,794.981685,788.5347985,781.6849817,801.4285714,1000.47619,-0.02356,0.112793,1.010315,3.334656,-6.474915,-3.342133,1,1,1,1,1,60,
45:30.4,0.805050982,0.726336992,0.910023469,0.204113774,0.210394616,0.470723182,0.450591275,0.294846678,0.526891263,0.834272253,0.298120966,0.611722166,0.538098348,0.388387093,0.566539804,0.37998146,0.096367219,0.197268287,0.262560839,0.039773262,811.5018315,800.6227106,761.1355311,794.981685,874.3589744,-0.022217,0.112061,1.013977,4.949646,-7.065582,-3.835602,1,1,1,1,1,60,
45:31.4,0.222746269,0.740407658,0.910023469,-0.188723732,0.026273558,0.366123808,0.450591275,-0.067140977,0.519462427,0.870372127,0.298120966,0.300892216,0.33653992,0.382946691,0.566539804,0.338282321,0.068530487,0.012093078,0.262560839,0.044401027,806.2637363,808.6813187,817.5457875,807.0695971,726.4835165,-0.045837,0.111938,1.008606,4.747772,-6.145935,-4.897308,1,1,1,1,1,60,
45:32.4,0.201459545,1.110021219,0.910023469,0.040557937,0.08402937,0.734362836,0.450591275,0.12982022,0.626267056,0.92022888,0.298120966,0.276311886,0.352538897,0.355333106,0.566539804,0.270448763,0.142801608,-0.122640395,0.262560839,0.052688488,793.7728938,794.981685,802.6373626,795.7875458,611.6483516,-0.033447,0.112488,1.012878,5.375824,-6.482391,-4.98703,1,1,1,1,1,60,
45:33.4,0.037624278,0.316342262,0.910023469,-0.123648454,0.238044274,0.189383366,0.450591275,0.121674568,0.556591142,0.346536432,0.298120966,0.353643381,0.250342625,0.150649961,0.566539804,0.218076848,0.06371311,-0.09303597,0.262560839,-0.08154015,796.1904762,799.8168498,784.9084249,797.3992674,674.9084249,-0.075195,0.111938,1.005554,4.82254,-8.052521,-4.314117,1,1,1,1,1,60,
45:34.4,0.258823321,-0.078982028,0.680475016,-0.050774591,0.347647473,-0.012438087,0.396223536,0.071262918,0.485934923,0.273719373,0.591851018,0.301698666,0.259886332,0.246596985,0.62806178,0.191819994,-0.026991212,-0.162225983,0.006567813,-0.095115611,794.1758242,794.1758242,770.4029304,796.996337,683.7728938,-0.061096,0.116516,1.003113,3.805695,-5.697327,-5.71228,1,1,1,1,1,60,
45:35.4,0.922856685,0.427280361,0.888090973,0.303777329,0.607148847,0.174069456,0.453011626,0.149249378,0.732497389,0.444243015,0.6458563,0.277036201,0.319871921,0.333460151,0.504362689,0.272183296,0.097111953,-0.074539856,0.208200239,0.012379964,802.6373626,794.981685,790.1465201,812.3076923,965.8241758,-0.03949,0.116211,1.012024,4.979553,-6.101074,-4.770203,1,1,1,1,1,60,
45:36.4,0.31456386,0.135980761,1.066360672,-0.212048003,0.39421588,-0.02996783,0.797405461,0.260716381,0.50872645,0.321043025,0.634732807,0.363473601,0.219951661,0.200605424,0.542055022,0.108623543,0.038888298,-0.380943717,0.245053834,0.036223757,807.0695971,805.4578755,811.9047619,796.1904762,632.6007326,-0.046143,0.124329,1.012451,4.919739,-6.661835,-5.024414,1,1,1,1,1,60,
45:37.4,0.334222839,0.697089876,1.237784944,-0.053277453,0.426601707,0.203174069,0.770984406,0.287552078,0.562540951,0.452399197,0.517963606,0.428926425,0.123973257,0.203845539,0.604840215,0.2668285,0.048897483,-0.287118381,0.185881112,0.132319445,801.025641,788.1318681,802.6373626,798.6080586,724.8717949,-0.044678,0.118652,1.009583,4.680481,-7.088013,-3.753357,1,1,1,1,1,60,
45:38.4,0.615002734,0.718342716,1.237784944,0.313380939,0.577267866,0.235155264,0.770984406,0.249686726,0.732425726,0.468999057,0.517963606,0.370172204,0.27703308,0.162541808,0.604840215,0.333670939,0.018828229,-0.049688632,0.185881112,-0.0233154,799.8168498,790.952381,709.1575092,802.2344322,1033.113553,-0.038696,0.11377,1.013245,3.775787,-7.267456,-3.798218,1,1,1,1,1,60,
45:39.2,,,,,,,,,,,,,,,,,,,,,,,,,,,,,,,,,,,,,,/muse/elements/blink
45:39.4,-0.031629555,0.186728531,1.237784944,0.092224135,0.147391751,-0.100543588,0.770984406,0.127548457,0.541034075,0.310420358,0.517963606,0.21795358,0.404924715,0.25826087,0.604840215,0.433367633,0.013521739,0.014270381,0.185881112,0.02957593,789.7435897,929.1575092,1224.505495,755.0915751,767.985348,-0.49762,0.124329,0.864197,13.428345,0.583191,-7.013245,1,1,1,1,1,60,
45:40.4,-0.258070888,0.048291673,1.237784944,-0.06938308,-0.075360662,-0.456680651,0.770984406,0.277469747,0.129749315,0.082394483,0.517963606,-0.072679663,0.279267456,0.31835953,0.604840215,0.355276957,0.118775253,0.133749741,0.185881112,0.136640585,865.0915751,806.2637363,848.1684982,842.9304029,814.3223443,-0.557007,0.153259,0.85199,5.996399,-12.792816,-13.413391,1,1,1,1,1,60,
45:40.6,,,,,,,,,,,,,,,,,,,,,,,,,,,,,,,,,,,,,,/muse/elements/blink
45:41.4,-0.258070888,0.048291673,1.237784944,-0.06938308,-0.075360662,-0.456680651,0.770984406,0.277469747,0.129749315,0.082394483,0.517963606,-0.072679663,0.279267456,0.31835953,0.604840215,0.355276957,0.118775253,0.133749741,0.185881112,0.136640585,777.6556777,776.043956,792.967033,780.0732601,764.7619048,-0.486694,0.139343,0.877625,4.777679,-8.209534,-3.618774,1,1,1,1,1,60,
45:42.4,,,,,,,,,,,,,,,,,,,,,,,,,,,,,,,,,,,,,,/muse/elements/blink
45:42.4,1.040687644,0.048291673,1.237784944,0.845896052,0.979957507,-0.456680651,0.770984406,0.648657561,0.581765627,0.082394483,0.517963606,0.611751065,0.534200207,0.31835953,0.604840215,0.547081319,0.287624472,0.133749741,0.185881112,0.432572548,789.3406593,753.0769231,745.018315,786.1172161,751.0622711,-0.464172,0.087463,0.885498,1.330872,-10.175934,4.717865,1,1,1,1,1,60,
45:43.4,1.040687644,1.117998025,1.237784944,0.845896052,0.979957507,0.809946251,0.770984406,0.648657561,0.581765627,1.034829875,0.517963606,0.611751065,0.534200207,0.658167615,0.604840215,0.547081319,0.287624472,0.413012158,0.185881112,0.432572548,821.1721612,758.7179487,749.047619,825.2014652,742.1978022,-0.42627,0.155823,0.90094,5.248718,-7.446899,-2.781372,1,1,1,1,1,60,
45:44.4,1.659965238,1.218253609,1.237784944,1.480590283,0.789943855,0.929457591,0.770984406,0.793491274,1.101501563,0.996164451,0.517963606,1.180042175,0.514388065,0.578496098,0.604840215,0.636108223,0.257590901,0.229554113,0.185881112,0.256306129,802.6373626,769.1941392,772.014652,806.6666667,960.1831502,-0.36554,0.164612,0.924255,5.368347,-6.945953,-0.882263,1,1,1,1,1,60,
45:45.4,1.4751602,0.501431648,1.237784944,1.444462214,0.971653516,0.550158754,0.770984406,0.821053056,1.286682021,0.685289464,0.517963606,1.301158733,0.636334946,0.084184948,0.604840215,0.467471239,0.163445781,-0.105826665,0.185881112,0.151630607,823.992674,804.2490842,775.6410256,805.0549451,460.5494505,-0.369812,0.172974,0.925842,4.560852,-7.768402,-4.658051,1,1,1,1,1,60,
45:46.2,,,,,,,,,,,,,,,,,,,,,,,,,,,,,,,,,,,,,,/muse/elements/blink
45:46.5,0.770179241,1.00167707,1.237784944,1.265490643,0.250433094,0.467359042,0.770984406,0.683212833,0.731350137,0.388631365,0.517963606,0.85049151,0.714100758,0.115164606,0.604840215,0.534694814,-0.039703432,-0.188210674,0.185881112,0.195399399,811.9047619,825.6043956,697.8754579,767.1794872,632.6007326,-0.351318,0.178833,0.935242,5.570221,-9.78714,-0.897217,1,1,1,1,1,60,
45:47.0,,,,,,,,,,,,,,,,,,,,,,,,,,,,,,,,,,,,,,/muse/elements/blink
45:47.4,0.770179241,1.101227322,1.237784944,1.54556883,0.250433094,0.296592792,0.770984406,0.783433482,0.731350137,-0.107105636,0.517963606,0.69256738,0.714100758,0.062378719,0.604840215,0.492872183,-0.039703432,-0.169852975,0.185881112,0.171802756,796.5934066,777.2527473,808.6813187,796.1904762,786.9230769,-0.319824,0.153625,0.951965,-0.097198,-7.940369,2.205658,1,1,1,1,1,60,
45:48.3,,,,,,,,,,,,,,,,,,,,,,,,,,,,,,,,,,,,,,/muse/elements/blink
45:48.4,0.770179241,1.101227322,1.237784944,1.54556883,0.250433094,0.296592792,0.770984406,0.783433482,0.731350137,-0.107105636,0.517963606,0.69256738,0.714100758,0.062378719,0.604840215,0.492872183,-0.039703432,-0.169852975,0.185881112,0.171802756,797.3992674,778.8644689,804.2490842,838.0952381,723.6630037,-0.286682,0.157776,0.954529,2.557068,-6.572113,2.198181,1,1,1,1,1,60,
45:49.3,,,,,,,,,,,,,,,,,,,,,,,,,,,,,,,,,,,,,,/muse/elements/blink
45:49.4,0.770179241,0.742005784,1.237784944,1.54556883,0.250433094,0.486067334,0.770984406,0.783433482,0.731350137,0.511242454,0.517963606,0.69256738,0.714100758,0.458739113,0.604840215,0.492872183,-0.039703432,0.191034631,0.185881112,0.171802756,796.996337,774.8351648,789.3406593,815.9340659,709.96337,-0.277466,0.157043,0.957764,4.98703,-9.114227,-6.213226,1,2,1,1,2,60,
45:50.0,,,,,,,,,,,,,,,,,,,,,,,,,,,,,,,,,,,,,,/muse/elements/blink
45:50.4,,,,,,,,,,,,,,,,,,,,,,,,,,,,,,,,,,,,,,/muse/elements/jaw_clench
45:50.4,0.770179241,0.733264782,1.237784944,1.54556883,0.250433094,0.437977516,0.770984406,0.783433482,0.731350137,0.384634218,0.517963606,0.69256738,0.714100758,0.352283309,0.604840215,0.492872183,-0.039703432,0.121405352,0.185881112,0.171802756,795.3846154,807.8754579,784.9084249,793.7728938,807.4725275,-0.311218,0.132568,0.951294,2.31781,-5.869293,-7.252502,1,2,1,1,2,60,
45:50.5,,,,,,,,,,,,,,,,,,,,,,,,,,,,,,,,,,,,,,/muse/elements/blink
45:50.9,,,,,,,,,,,,,,,,,,,,,,,,,,,,,,,,,,,,,,/muse/elements/jaw_clench
45:51.1,,,,,,,,,,,,,,,,,,,,,,,,,,,,,,,,,,,,,,/muse/elements/jaw_clench
45:51.4,0.770179241,0.733264782,1.237784944,1.54556883,0.250433094,0.437977516,0.770984406,0.783433482,0.731350137,0.384634218,0.517963606,0.69256738,0.714100758,0.352283309,0.604840215,0.492872183,-0.039703432,0.121405352,0.185881112,0.171802756,783.2967033,812.3076923,857.8388278,783.6996337,449.6703297,-0.318542,0.133301,0.95459,3.91037,-7.648773,-3.499146,1,2,1,1,2,60,
45:52.4,0.216797823,0.733264782,1.237784944,-0.017731689,0.09534692,0.437977516,0.770984406,0.126138345,0.298204785,0.384634218,0.517963606,0.263468831,1.000676393,0.352283309,0.604840215,1.038475613,1.082964832,0.121405352,0.185881112,1.094307487,758.7179487,816.3369963,788.5347985,756.3003663,719.2307692,-0.327759,0.106384,0.95282,7.177734,-7.439423,-7.30484,1,1,1,1,1,60,
45:52.7,,,,,,,,,,,,,,,,,,,,,,,,,,,,,,,,,,,,,,/muse/elements/blink
45:53.4,0.42162896,0.733264782,1.237784944,-0.12253941,0.229006078,0.437977516,0.770984406,0.256843942,0.349732018,0.384634218,0.517963606,0.252518133,1.007499747,0.352283309,0.604840215,1.05316029,1.020866692,0.121405352,0.185881112,1.106401039,788.5347985,858.6446886,782.0879121,768.7912088,775.6410256,-0.374329,0.030762,0.948425,4.456177,-3.895416,1.196289,1,1,1,1,1,60,
45:54.4,0.568802503,0.733264782,1.237784944,-0.109623729,0.309011655,0.437977516,0.770984406,0.311426312,0.240800347,0.384634218,0.517963606,0.239707948,1.046139465,0.352283309,0.604840215,1.054857978,0.913377534,0.121405352,0.185881112,1.080740651,786.9230769,766.7765568,446.4468864,785.7142857,654.3589744,-0.108215,0.124023,1.004272,9.450684,-11.746063,-8.531036,1,1,1,1,1,60,
45:55.4,,,,,,,,,,,,,,,,,,,,,,,,,,,,,,,,,,,,,,/muse/elements/blink
45:55.4,0.568802503,0.733264782,1.237784944,-0.109623729,0.309011655,0.437977516,0.770984406,0.311426312,0.240800347,0.384634218,0.517963606,0.239707948,1.046139465,0.352283309,0.604840215,1.054857978,0.913377534,0.121405352,0.185881112,1.080740651,814.7252747,771.2087912,816.7399267,806.2637363,883.6263736,-0.218201,0.150818,0.993408,5.091705,-0.044861,-1.659851,1,2,1,1,2,60,
45:56.0,,,,,,,,,,,,,,,,,,,,,,,,,,,,,,,,,,,,,,/muse/elements/blink
45:56.2,,,,,,,,,,,,,,,,,,,,,,,,,,,,,,,,,,,,,,/muse/elements/jaw_clench
45:56.4,1.602677478,0.733264782,1.237784944,-0.109623729,1.385697295,0.437977516,0.770984406,0.311426312,1.186246155,0.384634218,0.517963606,0.239707948,1.380084899,0.352283309,0.604840215,1.054857978,1.225019104,0.121405352,0.185881112,1.080740651,783.6996337,825.6043956,850.5860806,812.7106227,705.9340659,-0.453979,0.17981,0.883728,7.207642,1.443024,-15.970459,1,2,1,1,2,60,
45:57.0,,,,,,,,,,,,,,,,,,,,,,,,,,,,,,,,,,,,,,/muse/elements/blink
45:57.4,1.477063231,0.733264782,1.237784944,-0.109623729,1.287500434,0.437977516,0.770984406,0.311426312,1.230239692,0.384634218,0.517963606,0.239707948,1.349846675,0.352283309,0.604840215,1.054857978,1.225409332,0.121405352,0.185881112,1.080740651,821.5750916,789.7435897,828.8278388,813.9194139,675.3113553,-0.508362,0.15686,0.847656,1.749573,-4.396362,-3.409424,1,1,1,1,1,60,
45:58.4,0.5023593,0.459244253,0.220033818,-0.109623729,0.181929883,-0.299138517,0.47954958,0.311426312,0.308609107,0.455749425,0.415106773,0.239707948,0.713977051,0.968766972,1.468712758,1.054857978,0.233472261,0.643151795,1.002819104,1.080740651,798.2051282,787.3260073,809.4871795,797.8021978,792.1611722,-0.509155,0.151123,0.863281,4.590759,-7.132874,-5.061798,1,1,1,1,1,60,
45:59.4,0.563504889,0.261091265,0.113271881,0.449141814,0.414883486,0.135943683,0.2139423,0.076848858,0.556667861,0.63374578,0.445618102,0.243745853,0.687600039,0.962900968,1.289207087,0.609773511,0.394583457,0.713534581,0.931267679,0.436031751,810.2930403,784.9084249,793.3699634,803.4432234,700.2930403,-0.514343,0.139221,0.857727,2.34024,-5.959015,-2.542114,1,1,1,1,1,60,
46:00.4,0.475446289,0.293276768,0.08824959,0.324685787,0.510448387,0.268392491,-0.084011609,-0.138048963,0.577488359,0.598601419,0.273525692,0.34948029,0.715998821,0.902188501,1.323034914,0.685202177,0.377210436,0.615907291,0.960900822,0.433154661,807.4725275,790.5494505,802.6373626,803.040293,745.8241758,-0.509644,0.12854,0.859863,4.545898,-7.865601,-5.106659,1,1,1,1,1,60,
46:00.9,,,,,,,,,,,,,,,,,,,,,,,,,,,,,,,,,,,,,,/muse/elements/blink
46:01.4,0.561700906,0.591501032,0.163870962,0.115857022,0.609126963,0.298543662,-0.029172865,-0.424396438,0.424784299,0.386821315,0.150460491,0.340314963,0.646579609,0.695020921,1.486022685,0.599137042,0.333529691,0.655606076,1.007223725,0.426805338,780.0732601,748.2417582,862.6739927,783.6996337,717.6190476,-0.479248,0.158081,0.885498,2.437439,-5.345917,18.729401,1,1,1,1,1,60,
46:01.5,,,,,,,,,,,,,,,,,,,,,,,,,,,,,,,,,,,,,,/muse/elements/blink
46:02.4,0.829577277,0.7599296,0.209625744,0.294827167,0.864685727,0.493463395,0.049953944,-0.205055221,0.282962949,0.386563317,0.140203402,0.209485477,0.448724344,0.734568486,1.512501463,0.431503442,0.381130148,0.693803473,1.001610792,0.47984484,778.4615385,765.1648352,787.3260073,784.5054945,825.2014652,-0.516235,0.141418,0.86554,4.874878,-8.254395,-7.82074,1,1,1,1,1,60,
46:03.4,1.138271579,0.7599296,0.209625744,1.117238661,0.997413616,0.493463395,0.049953944,0.751857395,0.900672513,0.386563317,0.140203402,0.663648434,1.0703496,0.734568486,1.512501463,0.829059379,0.775095357,0.693803473,1.001610792,0.679862064,819.96337,880,830.8424908,813.1135531,719.6336996,-0.511719,0.106567,0.858521,5.031891,-7.005768,-3.708496,1,1,1,1,1,60,
46:03.9,,,,,,,,,,,,,,,,,,,,,,,,,,,,,,,,,,,,,,/muse/elements/blink
46:04.4,1.148253858,0.7599296,0.209625744,1.277713358,1.121914752,0.493463395,0.049953944,1.038039142,0.945337863,0.386563317,0.140203402,0.935404338,1.100381249,0.734568486,1.512501463,0.961653516,0.782403084,0.693803473,1.001610792,0.703360435,802.6373626,774.8351648,807.0695971,803.040293,1015.787546,-0.544678,0.098999,0.876282,1.637421,-7.581482,-0.343933,1,1,1,1,1,60,
46:05.4,0.083389872,0.7599296,0.209625744,0.87539068,0.48886678,0.493463395,0.049953944,0.785340285,0.773790356,0.386563317,0.140203402,1.143926829,1.341867131,0.734568486,1.512501463,1.348112723,0.830534649,0.693803473,1.001610792,0.855231116,818.3516484,800.2197802,788.5347985,805.0549451,839.3040293,-0.516602,0.105652,0.849487,5.540314,-7.514191,-3.947754,1,1,1,1,1,60,
46:05.8,,,,,,,,,,,,,,,,,,,,,,,,,,,,,,,,,,,,,,/muse/elements/blink
46:06.4,0.221989003,0.7599296,0.209625744,1.207085962,0.615246035,0.493463395,0.049953944,0.91282435,0.777549473,0.386563317,0.140203402,1.198870716,1.266582845,0.734568486,1.512501463,1.309441431,0.884730778,0.693803473,1.001610792,0.923161485,833.6630037,803.040293,796.1904762,838.4981685,653.5531136,-0.460327,0.149231,0.894592,7.125397,-7.723541,-8.613281,1,1,1,1,1,60,
46:06.9,,,,,,,,,,,,,,,,,,,,,,,,,,,,,,,,,,,,,,/muse/elements/blink
46:07.4,0.266701623,0.7599296,0.209625744,1.477560944,0.647422651,0.493463395,0.049953944,1.209653049,0.42302208,0.386563317,0.140203402,1.422832425,1.03506283,0.734568486,1.512501463,1.309447438,0.973601676,0.693803473,1.001610792,0.775782484,796.1904762,772.014652,790.5494505,864.2857143,643.0769231,-0.520752,0.108093,0.874451,3.095398,-12.531128,-2.968292,1,1,1,1,1,60,
46:08.0,,,,,,,,,,,,,,,,,,,,,,,,,,,,,,,,,,,,,,/muse/elements/blink
46:08.4,0.266701623,0.7599296,0.209625744,1.326455029,0.647422651,0.493463395,0.049953944,1.174311427,0.42302208,0.386563317,0.140203402,1.344387187,1.03506283,0.734568486,1.512501463,1.173327771,0.973601676,0.693803473,1.001610792,0.669303393,803.4432234,805.4578755,795.7875458,812.7106227,695.0549451,-0.448242,0.106018,0.869141,-2.706604,12.501221,1.173859,1,1,1,1,1,60,
46:08.9,,,,,,,,,,,,,,,,,,,,,,,,,,,,,,,,,,,,,,/muse/elements/blink
46:09.4,0.266701623,0.7599296,0.209625744,1.326455029,0.647422651,0.493463395,0.049953944,1.174311427,0.42302208,0.386563317,0.140203402,1.344387187,1.03506283,0.734568486,1.512501463,1.173327771,0.973601676,0.693803473,1.001610792,0.669303393,786.5201465,784.5054945,788.5347985,797.3992674,801.8315018,-0.576233,0.114929,0.820068,1.390686,-3.768311,-4.605713,1,1,1,1,1,60,
46:10.4,0.266701623,0.7599296,0.209625744,0.95045174,0.647422651,0.493463395,0.049953944,0.769877927,0.42302208,0.386563317,0.140203402,0.998771837,1.03506283,0.734568486,1.512501463,1.071680356,0.973601676,0.693803473,1.001610792,0.853709293,796.1904762,784.5054945,756.3003663,809.4871795,1005.714286,-0.491577,0.053406,0.869873,6.856232,-11.19278,-6.317902,1,1,1,1,1,60,
46:11.4,,,,,,,,,,,,,,,,,,,,,,,,,,,,,,,,,,,,,,/muse/elements/blink
46:11.4,0.665871455,0.460489207,0.643713089,0.835754177,0.351937534,-0.118860043,0.036476829,0.573769288,0.329376578,0.520555361,0.642809156,0.998771837,0.700243561,0.432714988,1.261957043,0.967136789,0.705753387,0.242977241,0.578298759,0.800005399,773.6263736,791.3553114,604.7985348,790.5494505,791.7582418,-0.164612,0.096741,0.99054,8.388977,-30.64743,-10.3479,1,1,1,1,1,60,
46:12.4,0.610123335,0.89281135,0.63712114,0.665982241,0.301769613,0.092044397,-0.004150611,0.315334447,-0.054818698,0.146810254,0.617485747,0.405240655,0.620409463,0.274699827,1.289262148,0.912179414,0.653237045,0.057609279,0.578722349,0.733068919,828.4249084,801.4285714,993.6263736,827.2161172,595.9340659,-0.362427,0.05658,0.938782,-6.871185,7.850647,22.983704,1,1,1,1,1,60,
46:12.5,,,,,,,,,,,,,,,,,,,,,,,,,,,,,,,,,,,,,,/muse/elements/blink
46:12.8,,,,,,,,,,,,,,,,,,,,,,,,,,,,,,,,,,,,,,/muse/elements/blink
46:13.4,0.610123335,1.117956137,0.63712114,0.665982241,0.301769613,0.656586034,-0.004150611,0.315334447,-0.054818698,0.684181936,0.617485747,0.405240655,0.620409463,0.634434189,1.289262148,0.912179414,0.653237045,0.533158261,0.578722349,0.733068919,786.1172161,776.8498168,678.5347985,783.6996337,1186.227106,-0.007141,0.12677,1.004517,4.052429,-9.525452,-3.401947,1,1,1,1,1,60,
46:14.4,0.18678858,0.870866161,0.63712114,0.35843894,-0.235422242,0.477295706,-0.004150611,-0.435570538,0.099683479,0.642581741,0.617485747,0.241506539,0.499361683,0.365176478,1.289262148,0.417203891,0.417313999,0.379923802,0.578722349,0.17317485,813.5164835,811.9047619,788.5347985,781.2820513,798.6080586,0.005188,0.117981,1.015198,5.061798,-7.200165,-5.816956,1,1,1,1,1,60,
46:15.4,0.222730868,0.410477677,0.63712114,0.078418151,0.210209246,-0.024181186,-0.004150611,-0.110806028,0.601294291,0.349527558,0.617485747,0.414839994,0.486266142,0.404684962,1.289262148,0.478327486,0.282967311,0.13410725,0.578722349,0.300335927,784.1025641,788.1318681,768.3882784,787.7289377,788.9377289,0.015259,0.109741,1.008606,4.306641,-7.005768,-4.403839,1,1,1,1,1,60,
46:16.4,0.405583893,0.041875541,0.63712114,0.167638705,0.467659358,0.130384071,-0.004150611,0.246526591,0.596006621,0.38181504,0.617485747,0.308094954,0.459585759,0.561410927,1.289262148,0.43066666,0.098098247,0.134205364,0.578722349,0.286971486,786.9230769,775.6410256,805.8608059,767.985348,727.2893773,0.015991,0.113586,1.01239,4.897308,-7.641296,-4.732819,1,1,1,1,1,60,
46:17.4,0.275810552,0.033918369,0.63712114,0.118190445,0.332103126,-0.030459075,-0.004150611,0.201914927,0.268335882,0.398576988,0.617485747,0.201887372,0.377117734,0.624570446,1.289262148,0.297419285,0.050383156,0.133092327,0.578722349,0.215108915,788.9377289,795.3846154,742.6007326,778.4615385,872.7472527,0.02356,0.118713,1.00647,4.515991,-8.299255,-4.314117,1,1,1,1,1,60,
46:18.2,,,,,,,,,,,,,,,,,,,,,,,,,,,,,,,,,,,,,,/muse/elements/blink
46:18.4,0.490136937,0.181020303,0.63712114,0.056064099,0.450445366,0.007920914,-0.004150611,0.077908694,0.590466765,0.387358765,0.617485747,0.309036828,0.360277943,0.459744363,1.289262148,0.226795846,-0.084343122,0.119463311,0.578722349,0.150722773,804.2490842,796.996337,737.7655678,800.2197802,695.0549451,0.026733,0.119446,1.012268,4.508514,-7.686157,-4.463654,1,1,1,1,1,60,
46:19.4,0.896818986,0.403858614,0.63712114,-0.137425331,0.759986056,0.12774278,-0.004150611,0.004337385,0.58934031,0.351702268,0.617485747,0.237053886,0.27232397,0.444472235,1.289262148,0.223824578,-0.024739075,0.179575208,0.578722349,0.133240335,795.7875458,780.4761905,394.4688645,795.7875458,722.0512821,0.037231,0.116394,1.010193,4.687958,-7.110443,-4.949646,1,1,1,1,1,60,
46:20.4,0.426114513,0.107652299,0.63712114,0.16856068,0.465992701,0.109335255,-0.004150611,-0.082176309,0.535812528,0.405475077,0.617485747,0.554658728,0.427007965,0.472832517,1.289262148,0.344742866,-0.027518155,0.077779123,0.578722349,0.216124607,798.2051282,801.8315018,753.0769231,791.7582418,762.3443223,0.03595,0.121033,1.008972,4.515991,-7.461853,-6.078644,1,1,1,1,1,60,
46:21.4,0.171770318,0.520799148,0.63712114,-0.091414822,0.04454548,0.428938396,-0.004150611,-0.125552736,0.398504014,0.632296806,0.617485747,0.274008911,0.490084124,0.367455607,1.289262148,0.522691775,-0.091434844,0.066019164,0.578722349,0.21033382,788.9377289,797.3992674,785.7142857,793.3699634,830.03663,0.038452,0.117554,1.01001,4.231873,-7.065582,-4.231873,1,1,1,1,1,60,
46:22.4,0.325858245,0.305861524,0.63712114,-0.058495738,0.144138939,0.341260736,-0.004150611,-0.160669909,0.393356909,0.600455799,0.617485747,0.480000615,0.39623542,0.364035723,1.289262148,0.477531026,0.002987593,0.07607266,0.578722349,0.194741825,812.7106227,799.8168498,717.2161172,808.6813187,1008.534799,0.055054,0.11853,1.015869,5.301056,-7.701111,-4.142151,1,1,1,4,1,60,
46:23.4,0.229574796,0.100706881,0.63712114,0.088020189,0.346522161,0.09719585,-0.004150611,0.336954972,0.624844418,0.483093196,0.617485747,0.654416522,0.496395921,0.362424207,1.289262148,0.520122623,0.179888347,0.161099515,0.578722349,0.390265423,799.010989,794.1758242,844.9450549,799.4139194,496.8131868,0.053162,0.11615,1.006714,4.216919,-7.671204,-4.830017,1,1,1,4,1,60,
46:24.4,0.027155353,-0.27408137,0.63712114,0.085784897,0.135468029,0.036634177,-0.004150611,0.035739777,0.182752907,0.457629773,0.617485747,0.291509681,0.298757599,0.3322894,1.289262148,0.442274993,0.326001377,0.170685591,0.578722349,0.22790916,798.6080586,796.5934066,876.7765568,805.8608059,1051.245421,0.052246,0.116577,1.006836,5.495453,-8.291779,-3.349609,1,1,1,4,1,60,
46:25.4,0.570155317,0.331371859,0.63712114,0.100107143,0.252792522,0.171475885,-0.004150611,-0.138632616,0.660437292,0.37998317,0.617485747,0.276126696,0.368443902,0.24675788,1.289262148,0.387161248,0.090870245,-0.064713422,0.578722349,0.110945131,790.5494505,776.043956,762.7472527,796.996337,924.7252747,0.085571,0.118896,1.006409,4.979553,-6.654358,-4.605713,1,1,1,2,1,60,
46:26.4,0.679631411,0.525294739,0.63712114,-0.154430564,0.390697407,0.241464356,-0.004150611,-0.110731172,0.698165352,0.624049126,0.617485747,0.406601998,0.505160197,0.214544744,1.289262148,0.359235108,-0.010618955,-0.042205187,0.578722349,0.043278578,795.7875458,792.5641026,695.8608059,797.3992674,710.7692308,0.081177,0.123535,1.011353,4.61319,-6.198273,-5.039368,1,1,1,2,1,60,
46:27.4,0.323219169,0.227297086,0.63712114,-0.258619617,0.037358217,0.030525958,-0.004150611,-0.044556575,0.489343449,0.61862375,0.617485747,0.312240955,0.288386786,0.141692006,1.289262148,0.252447133,-0.010940243,0.03824463,0.578722349,0.00153797,811.5018315,796.1904762,818.7545788,804.6520147,778.8644689,0.070129,0.125671,1.009033,4.785156,-6.003876,-4.059906,1,1,1,2,1,60,
46:28.4,0.0493201,-0.245234493,0.63712114,-0.34946017,0.150564396,-0.328908535,-0.004150611,-0.039132317,0.328646021,-0.118691886,0.617485747,0.153675612,0.211186641,0.095517067,1.289262148,0.242653604,-0.064146255,-0.034269894,0.578722349,-0.024173361,813.9194139,792.5641026,846.959707,795.3846154,720.8424908,0.058899,0.123962,1.007812,4.927216,-7.551575,-4.321594,1,1,1,2,1,60,
46:29.0,,,,,,,,,,,,,,,,,,,,,,,,,,,,,,,,,,,,,,/muse/elements/blink
46:29.4,0.734121708,-0.285899688,0.63712114,0.785921724,0.838429471,-0.138557357,-0.004150611,0.836596195,1.042630774,0.358348852,0.617485747,1.308968838,0.537735361,0.130106943,1.289262148,0.608324355,0.062343857,-0.06726684,0.578722349,0.032270911,748.2417582,808.2783883,1486.007326,788.5347985,791.7582418,-0.15564,0.108887,0.996643,-12.134857,43.881378,41.271973,1,1,1,2,1,60,
46:29.6,,,,,,,,,,,,,,,,,,,,,,,,,,,,,,,,,,,,,,/muse/elements/blink
46:30.2,,,,,,,,,,,,,,,,,,,,,,,,,,,,,,,,,,,,,,/muse/elements/blink
46:30.4,1.134817095,0.517481662,0.63712114,1.236648932,1.182055257,0.428635526,-0.004150611,1.224858283,1.035732037,0.913034881,0.617485747,1.323709062,0.759970878,0.548988925,1.289262148,0.870511424,0.152275524,0.258807447,0.578722349,0.251248637,791.3553114,762.7472527,1035.128205,820.7692308,746.6300366,-0.297607,0.042053,0.96759,5.787048,-9.607697,-17.839661,1,1,1,2,1,60,
46:31.4,1.196882771,0.866299662,0.63712114,1.348258327,1.232490726,0.681653052,-0.004150611,1.326326709,1.034355366,0.913034881,0.617485747,1.323709062,0.7837228,0.826528638,1.289262148,0.931286432,0.157796786,0.423241468,0.578722349,0.319596615,791.3553114,787.3260073,1065.347985,802.6373626,773.2234432,-0.289124,0.020935,0.976746,4.530945,-6.347809,-8.73291,1,1,1,4,1,60,
46:32.4,0.082703061,-0.076618514,0.63712114,-0.190799409,-0.057822641,-0.516126292,-0.004150611,0.078413151,0.230686229,0.133153337,0.617485747,0.269726239,0.617800771,0.868132987,1.289262148,0.519505904,0.224068805,0.491198819,0.578722349,0.221103341,818.3516484,799.8168498,974.2857143,817.9487179,753.8827839,-0.305847,-0.010681,0.965637,3.02063,-8.284302,4.291687,1,1,1,1,1,60,
46:33.4,0.18685892,0.400218746,0.63712114,0.098738449,-0.166062898,-0.062344522,-0.004150611,0.081536571,0.198558571,0.177830261,0.617485747,0.233472463,0.611675908,0.874372216,1.289262148,0.576783496,0.262218982,0.603062106,0.578722349,0.327388499,796.5934066,795.3846154,849.7802198,794.5787546,776.043956,-0.336243,-0.004517,0.961182,3.588867,-8.097382,-5.308533,1,1,1,4,1,60,
46:34.4,0.510277194,0.444679876,0.63712114,0.435228645,0.116521089,0.390351402,-0.004150611,0.348438499,0.104179006,0.326846026,0.617485747,0.267008541,0.688844191,0.884068858,1.289262148,0.766843491,0.148528325,0.656050345,0.578722349,0.566082226,787.3260073,788.5347985,786.9230769,807.8754579,898.9377289,-0.308105,-0.00415,0.967896,2.743988,-6.504822,-7.132874,1,1,1,1,1,60,
46:35.4,,,,,,,,,,,,,,,,,,,,,,,,,,,,,,,,,,,,,,/muse/elements/blink
46:35.4,0.564252186,0.561715834,0.274156911,0.66750015,0.295488203,0.281969244,0.257626291,0.554177447,0.249465653,0.439326562,0.656242869,0.383010957,0.538392699,0.735707169,0.962590877,0.674052901,0.341493428,0.72339953,0.89408136,0.440976909,817.5457875,784.9084249,798.2051282,811.5018315,837.6923077,-0.333679,0.049194,0.956055,14.198456,-0.762634,-4.09729,1,1,1,1,1,60,
46:36.4,0.564252186,0.314853664,0.304598948,0.66750015,0.295488203,-0.496649148,0.028407605,0.554177447,0.249465653,0.28862544,0.456042895,0.383010957,0.538392699,0.71432142,0.931095218,0.674052901,0.341493428,0.77792852,0.923146823,0.440976909,809.0842491,826.8131868,805.0549451,779.6703297,1249.084249,-0.464539,0.137634,0.863708,34.497986,-33.548431,-44.644012,1,1,1,1,1,55,
46:37.4,0.89189363,0.28419984,0.304598948,0.66750015,0.129162305,-0.610877621,0.028407605,0.554177447,0.955195116,0.143472279,0.456042895,0.383010957,0.863830038,0.684793369,0.931095218,0.674052901,0.485639781,0.773525385,0.923146823,0.440976909,815.1282051,798.2051282,853.003663,775.6410256,570.5494505,-0.355408,-0.000122,0.921143,3.259888,-8.463745,1.315918,1,1,1,2,1,55,
46:38.4,0.89189363,0.28419984,0.304598948,0.66750015,0.129162305,-0.610877621,0.028407605,0.554177447,0.955195116,0.143472279,0.456042895,0.383010957,0.863830038,0.684793369,0.931095218,0.674052901,0.485639781,0.773525385,0.923146823,0.440976909,796.1904762,795.3846154,805.4578755,800.6227106,686.1904762,-0.340637,0.138489,1.019165,12.875061,-27.350159,-8.19458,1,1,1,2,1,55,
46:39.4,0.831357089,1.155268353,0.304598948,1.18938185,0.955758648,1.061829068,0.028407605,0.783147547,0.88720251,0.796001981,0.456042895,1.077651278,0.833626318,0.814017806,0.931095218,1.135984729,0.385191936,0.626650915,0.923146823,0.376522237,813.5164835,797.3992674,788.1318681,859.4505495,914.6520147,-0.196411,-0.248291,0.855835,-16.374207,-27.940826,-13.600311,1,1,1,1,1,55,
46:40.4,0.70694896,0.738204966,0.304598948,1.109448741,0.787653957,0.601935735,0.028407605,0.757211649,1.245776841,0.673960048,0.456042895,1.032178021,1.136280403,0.518668517,0.931095218,1.141479019,1.106170162,0.363893429,0.923146823,0.366919582,798.2051282,800.2197802,738.1684982,775.6410256,743.8095238,0.026733,-0.535767,0.894287,-2.310333,-9.99649,0.074768,1,1,1,1,1,55,
,,,,,,,,,,,,,,,,,,,,,,,,,,,,,,,,,,,,,,
,,,,,,,,,,,,,,,,,,,,,,,,,,,,,,,,,,,,,,
,,,,,,,,,,,,,,,,,,,,,,,,,,,,,,,,,,,,,,
,,,,,,,,,,,,,,,,,,,,,,,,,,,,,,,,,,,,,,
,,,,,,,,,,,,,,,,,,,,,,,,,,,,,,,,,,,,,,
,,,,,,,,,,,,,,,,,,,,,,,,,,,,,,,,,,,,,,
,,,,,,,,,,,,,,,,,,,,,,,,,,,,,,,,,,,,,,
,,,,,,,,,,,,,,,,,,,,,,,,,,,,,,,,,,,,,,
,,,,,,,,,,,,,,,,,,,,,,,,,,,,,,,,,,,,,,
,,,,,,,,,,,,,,,,,,,,,,,,,,,,,,,,,,,,,,
,,,,,,,,,,,,,,,,,,,,,,,,,,,,,,,,,,,,,,
,,,,,,,,,,,,,,,,,,,,,,,,,,,,,,,,,,,,,,
,,,,,,,,,,,,,,,,,,,,,,,,,,,,,,,,,,,,,,
,,,,,,,,,,,,,,,,,,,,,,,,,,,,,,,,,,,,,,
,,,,,,,,,,,,,,,,,,,,,,,,,,,,,,,,,,,,,,
,,,,,,,,,,,,,,,,,,,,,,,,,,,,,,,,,,,,,,
,,,,,,,,,,,,,,,,,,,,,,,,,,,,,,,,,,,,,,
,,,,,,,,,,,,,,,,,,,,,,,,,,,,,,,,,,,,,,
,,,,,,,,,,,,,,,,,,,,,,,,,,,,,,,,,,,,,,
,,,,,,,,,,,,,,,,,,,,,,,,,,,,,,,,,,,,,,
,,,,,,,,,,,,,,,,,,,,,,,,,,,,,,,,,,,,,,
,,,,,,,,,,,,,,,,,,,,,,,,,,,,,,,,,,,,,,
,,,,,,,,,,,,,,,,,,,,,,,,,,,,,,,,,,,,,,
,,,,,,,,,,,,,,,,,,,,,,,,,,,,,,,,,,,,,,
,,,,,,,,,,,,,,,,,,,,,,,,,,,,,,,,,,,,,,
,,,,,,,,,,,,,,,,,,,,,,,,,,,,,,,,,,,,,,
,,,,,,,,,,,,,,,,,,,,,,,,,,,,,,,,,,,,,,
,,,,,,,,,,,,,,,,,,,,,,,,,,,,,,,,,,,,,,
,,,,,,,,,,,,,,,,,,,,,,,,,,,,,,,,,,,,,,
,,,,,,,,,,,,,,,,,,,,,,,,,,,,,,,,,,,,,,
,,,,,,,,,,,,,,,,,,,,,,,,,,,,,,,,,,,,,,
,,,,,,,,,,,,,,,,,,,,,,,,,,,,,,,,,,,,,,
,,,,,,,,,,,,,,,,,,,,,,,,,,,,,,,,,,,,,,
,,,,,,,,,,,,,,,,,,,,,,,,,,,,,,,,,,,,,,
,,,,,,,,,,,,,,,,,,,,,,,,,,,,,,,,,,,,,,
,,,,,,,,,,,,,,,,,,,,,,,,,,,,,,,,,,,,,,
,,,,,,,,,,,,,,,,,,,,,,,,,,,,,,,,,,,,,,
,,,,,,,,,,,,,,,,,,,,,,,,,,,,,,,,,,,,,,
,,,,,,,,,,,,,,,,,,,,,,,,,,,,,,,,,,,,,,
,,,,,,,,,,,,,,,,,,,,,,,,,,,,,,,,,,,,,,
,,,,,,,,,,,,,,,,,,,,,,,,,,,,,,,,,,,,,,
,,,,,,,,,,,,,,,,,,,,,,,,,,,,,,,,,,,,,,
,,,,,,,,,,,,,,,,,,,,,,,,,,,,,,,,,,,,,,
,,,,,,,,,,,,,,,,,,,,,,,,,,,,,,,,,,,,,,
,,,,,,,,,,,,,,,,,,,,,,,,,,,,,,,,,,,,,,
,,,,,,,,,,,,,,,,,,,,,,,,,,,,,,,,,,,,,,
,,,,,,,,,,,,,,,,,,,,,,,,,,,,,,,,,,,,,,
,,,,,,,,,,,,,,,,,,,,,,,,,,,,,,,,,,,,,,
,,,,,,,,,,,,,,,,,,,,,,,,,,,,,,,,,,,,,,
,,,,,,,,,,,,,,,,,,,,,,,,,,,,,,,,,,,,,,
,,,,,,,,,,,,,,,,,,,,,,,,,,,,,,,,,,,,,,
,,,,,,,,,,,,,,,,,,,,,,,,,,,,,,,,,,,,,,
,,,,,,,,,,,,,,,,,,,,,,,,,,,,,,,,,,,,,,
,,,,,,,,,,,,,,,,,,,,,,,,,,,,,,,,,,,,,,
,,,,,,,,,,,,,,,,,,,,,,,,,,,,,,,,,,,,,,
,,,,,,,,,,,,,,,,,,,,,,,,,,,,,,,,,,,,,,
,,,,,,,,,,,,,,,,,,,,,,,,,,,,,,,,,,,,,,
,,,,,,,,,,,,,,,,,,,,,,,,,,,,,,,,,,,,,,
,,,,,,,,,,,,,,,,,,,,,,,,,,,,,,,,,,,,,,
,,,,,,,,,,,,,,,,,,,,,,,,,,,,,,,,,,,,,,
,,,,,,,,,,,,,,,,,,,,,,,,,,,,,,,,,,,,,,
,,,,,,,,,,,,,,,,,,,,,,,,,,,,,,,,,,,,,,
,,,,,,,,,,,,,,,,,,,,,,,,,,,,,,,,,,,,,,
,,,,,,,,,,,,,,,,,,,,,,,,,,,,,,,,,,,,,,
,,,,,,,,,,,,,,,,,,,,,,,,,,,,,,,,,,,,,,
,,,,,,,,,,,,,,,,,,,,,,,,,,,,,,,,,,,,,,
,,,,,,,,,,,,,,,,,,,,,,,,,,,,,,,,,,,,,,
,,,,,,,,,,,,,,,,,,,,,,,,,,,,,,,,,,,,,,
,,,,,,,,,,,,,,,,,,,,,,,,,,,,,,,,,,,,,,
,,,,,,,,,,,,,,,,,,,,,,,,,,,,,,,,,,,,,,
,,,,,,,,,,,,,,,,,,,,,,,,,,,,,,,,,,,,,,
,,,,,,,,,,,,,,,,,,,,,,,,,,,,,,,,,,,,,,
,,,,,,,,,,,,,,,,,,,,,,,,,,,,,,,,,,,,,,
,,,,,,,,,,,,,,,,,,,,,,,,,,,,,,,,,,,,,,
,,,,,,,,,,,,,,,,,,,,,,,,,,,,,,,,,,,,,,
,,,,,,,,,,,,,,,,,,,,,,,,,,,,,,,,,,,,,,
,,,,,,,,,,,,,,,,,,,,,,,,,,,,,,,,,,,,,,
,,,,,,,,,,,,,,,,,,,,,,,,,,,,,,,,,,,,,,
,,,,,,,,,,,,,,,,,,,,,,,,,,,,,,,,,,,,,,
,,,,,,,,,,,,,,,,,,,,,,,,,,,,,,,,,,,,,,
,,,,,,,,,,,,,,,,,,,,,,,,,,,,,,,,,,,,,,
,,,,,,,,,,,,,,,,,,,,,,,,,,,,,,,,,,,,,,
,,,,,,,,,,,,,,,,,,,,,,,,,,,,,,,,,,,,,,
,,,,,,,,,,,,,,,,,,,,,,,,,,,,,,,,,,,,,,
,,,,,,,,,,,,,,,,,,,,,,,,,,,,,,,,,,,,,,
,,,,,,,,,,,,,,,,,,,,,,,,,,,,,,,,,,,,,,
,,,,,,,,,,,,,,,,,,,,,,,,,,,,,,,,,,,,,,
,,,,,,,,,,,,,,,,,,,,,,,,,,,,,,,,,,,,,,
,,,,,,,,,,,,,,,,,,,,,,,,,,,,,,,,,,,,,,
,,,,,,,,,,,,,,,,,,,,,,,,,,,,,,,,,,,,,,
,,,,,,,,,,,,,,,,,,,,,,,,,,,,,,,,,,,,,,
,,,,,,,,,,,,,,,,,,,,,,,,,,,,,,,,,,,,,,
,,,,,,,,,,,,,,,,,,,,,,,,,,,,,,,,,,,,,,
,,,,,,,,,,,,,,,,,,,,,,,,,,,,,,,,,,,,,,
,,,,,,,,,,,,,,,,,,,,,,,,,,,,,,,,,,,,,,
,,,,,,,,,,,,,,,,,,,,,,,,,,,,,,,,,,,,,,
,,,,,,,,,,,,,,,,,,,,,,,,,,,,,,,,,,,,,,
,,,,,,,,,,,,,,,,,,,,,,,,,,,,,,,,,,,,,,
,,,,,,,,,,,,,,,,,,,,,,,,,,,,,,,,,,,,,,
,,,,,,,,,,,,,,,,,,,,,,,,,,,,,,,,,,,,,,
,,,,,,,,,,,,,,,,,,,,,,,,,,,,,,,,,,,,,,
,,,,,,,,,,,,,,,,,,,,,,,,,,,,,,,,,,,,,,
,,,,,,,,,,,,,,,,,,,,,,,,,,,,,,,,,,,,,,
,,,,,,,,,,,,,,,,,,,,,,,,,,,,,,,,,,,,,,
,,,,,,,,,,,,,,,,,,,,,,,,,,,,,,,,,,,,,,
