TimeStamp,Delta_TP9,Delta_AF7,Delta_AF8,Delta_TP10,Theta_TP9,Theta_AF7,Theta_AF8,Theta_TP10,Alpha_TP9,Alpha_AF7,Alpha_AF8,Alpha_TP10,Beta_TP9,Beta_AF7,Beta_AF8,Beta_TP10,Gamma_TP9,Gamma_AF7,Gamma_AF8,Gamma_TP10,RAW_TP9,RAW_AF7,RAW_AF8,RAW_TP10,AUX_RIGHT,Accelerometer_X,Accelerometer_Y,Accelerometer_Z,Gyro_X,Gyro_Y,Gyro_Z,HeadBandOn,HSI_TP9,HSI_AF7,HSI_AF8,HSI_TP10,Battery,Elements
2024-10-15 11:46:49.554,,,,,,,,,,,,,,,,,,,,,,,,,,,,,,,,,,,,,,/muse/event/connected Muse-19E7
2024-10-15 11:46:50.555,0.2605917496406905,-0.3282625291866259,0.5400687475745394,0.1454622256737979,0.630241094051479,-0.03314479684973291,0.135505094427697,0.2009696377900652,1.147569190665095,0.2862763620066325,0.2819962013648519,0.7888804101124688,0.7856566414538382,0.01582695322651766,0.05347022582607495,0.4908201854656626,0.8180207507674173,-0.1766837528638799,-0.2877761365360386,0.5723722681469438,1167.692307692308,795.3846153846154,800.6227106227107,954.5421245421246,999.2673992673992,-0.047791,0.029724,1.017883,4.403839,-6.669312,-4.044952,1,1,1,1,1,35.000000
2024-10-15 11:46:51.555,0.08412315325445119,0.02118476788730707,0.4488431332607639,-0.0697988750454268,0.09140723335269897,-0.494409365544932,-0.06753497555094595,-0.1642065163397905,1.048198058852576,0.04616085481242841,0.2561490223101188,0.7201784369891158,0.4245561225117384,-0.02768551484635077,-0.08680616769821183,0.5267994473649501,0.1737348803141701,-0.2919092177348682,-0.07444107045321055,0.5541717927913263,1037.142857142857,797.3992673992674,793.7728937728938,892.4908424908425,593.5164835164835,-0.047058,0.031677,1.011108,5.196381,-7.125397,-4.620667,1,1,1,1,1,35.000000
2024-10-15 11:46:51.878,,,,,,,,,,,,,,,,,,,,,,,,,,,,,,,,,,,,,,/muse/elements/blink
2024-10-15 11:46:52.555,0.02437262286838211,0.08196557524419268,0.3399203408794848,-0.1670710038321818,0.3343853717132175,-0.512406384972553,-0.1283926525461559,-0.06097124539292638,0.9325788244927701,-0.007547356967196788,0.2669540146226189,0.8357804735845156,0.4729722895937663,-0.2589894263763804,0.02576182074037316,0.5048023552219483,0.4017879529684512,-0.2576435425356337,-0.1897155887537193,0.4325582661301221,1131.025641025641,804.2490842490843,811.5018315018315,940.0366300366301,783.2967032967033,-0.046875,0.029480,1.018372,5.084229,-6.931000,-4.979553,1,1,1,1,1,35.000000
2024-10-15 11:46:53.555,-0.1002069085321892,-0.4947470155706168,0.5575174880274167,0.05906801660183878,0.2792008368944281,-0.288066382717745,-0.2724687758629296,0.000291900238285872,1.012283700048212,0.2697719061267559,0.253595031901408,0.7466034920307713,0.5826778349711066,0.02352853429479975,0.01944523220901249,0.4630904535893288,0.2745333247995386,-0.2598782617555849,-0.3577844579881769,0.2801587411529914,1197.106227106227,805.4578754578755,811.9047619047619,973.8827838827839,929.1575091575091,-0.046631,0.028870,1.021118,4.673004,-6.998291,-4.336548,1,1,1,1,1,35.000000
2024-10-15 11:46:54.555,0.4337032504539735,0.3126929531017011,0.5404461372538752,0.593588651322316,0.3310235401372493,0.09891695651448032,-0.2513684462586926,0.3659208584008434,1.069500156932287,0.218355639968623,0.009564268933048447,0.8115255946774421,0.5759815640642414,0.1553057561938705,0.06654160008056118,0.4597032593412076,0.08902472534336575,-0.1058548235006925,-0.1572443605191318,0.4127188196178314,918.6813186813187,793.3699633699634,825.2014652014652,794.981684981685,932.7838827838829,-0.050232,0.030701,1.017822,4.919739,-5.218811,-3.790741,1,1,1,1,1,35.000000
2024-10-15 11:46:54.605,,,,,,,,,,,,,,,,,,,,,,,,,,,,,,,,,,,,,,/muse/elements/jaw_clench
2024-10-15 11:46:54.839,,,,,,,,,,,,,,,,,,,,,,,,,,,,,,,,,,,,,,/muse/elements/blink
2024-10-15 11:46:55.011,,,,,,,,,,,,,,,,,,,,,,,,,,,,,,,,,,,,,,/muse/elements/blink
2024-10-15 11:46:55.011,,,,,,,,,,,,,,,,,,,,,,,,,,,,,,,,,,,,,,/muse/elements/jaw_clench
2024-10-15 11:46:55.555,0.6238116695818698,0.6902021578960702,0.4939367763524138,0.8633054786610382,0.5417312851770034,0.330569125047465,-0.1021477942813333,0.5597620870468268,1.036651221263118,-0.001868675574338361,-0.1072089782577503,0.7656955929818295,0.4381931155681265,0.2373350136339994,0.1592445863745593,0.5182040566396156,0.2375306174796808,0.08676816607574024,0.07056123937014842,0.5386704759875952,1110.07326007326,783.2967032967033,829.2307692307693,923.919413919414,972.2710622710623,-0.189880,0.036011,0.998962,3.626251,-12.650757,-4.605713,1,1,1,1,1,30.000000
2024-10-15 11:46:56.144,,,,,,,,,,,,,,,,,,,,,,,,,,,,,,,,,,,,,,/muse/elements/blink
2024-10-15 11:46:56.568,0.2912765519153281,0.7705505289965739,0.4939367763524138,0.3831893747572478,0.5391670324425902,0.3888898649230796,-0.1021477942813333,0.2741089429242775,0.6870998817139792,-0.0184635422222268,-0.1072089782577503,0.7575403747675977,0.7415791960976688,0.2606092891535081,0.1592445863745593,0.7610634373817116,0.4814212437160135,0.145651383654696,0.07056123937014842,0.4756110054033091,827.6190476190476,784.1025641025641,790.1465201465202,799.4139194139194,981.5384615384615,-0.128479,0.033142,1.008667,4.590759,-8.860016,-4.433746,1,1,1,1,1,30.000000
2024-10-15 11:46:57.568,0.2409716076396121,-0.3854460779089576,0.105191020082476,0.2292593956959599,0.1552566212370317,-0.395138900066584,-0.4390784914744933,0.06735774939514455,1.268924514510096,0.2997608213754858,0.1165937683828627,0.7626675237047683,0.7120624843061206,0.09677035444811907,0.118190504979816,0.6748544585926169,0.3508862259539343,-0.2408642824457881,-0.2698122470245161,0.4663584790058375,965.4212454212454,795.7875457875458,796.5934065934066,857.8388278388279,737.3626373626374,-0.104675,0.034851,1.014038,4.755249,-8.246918,-3.910370,1,1,1,1,1,30.000000
2024-10-15 11:46:57.633,,,,,,,,,,,,,,,,,,,,,,,,,,,,,,,,,,,,,,/muse/elements/blink
2024-10-15 11:46:58.554,0.1937571512082606,-0.3467231502654965,0.03076101239816808,-0.1109487854947263,0.2705980907324134,-0.08987646622498562,-0.3991502803131296,0.17083654262221,1.332770129126484,0.5440041997153579,0.2098504364655473,0.540853521329723,0.8074649395335327,0.1169861770045054,-0.00225949007114556,0.5716746181370586,0.3694920360974151,-0.2594033926245803,-0.209716474731916,0.3437251464488848,1091.941391941392,798.6080586080586,797.8021978021978,921.9047619047619,718.4249084249085,-0.086853,0.029663,1.012878,4.560852,-7.192688,-4.291687,1,1,1,1,1,30.000000
2024-10-15 11:46:59.555,0.3166854026396972,-0.2423526108096954,0.07420537139116029,0.2170241318831669,0.3029022240584773,-0.1465577559032619,-0.2131568832807122,0.4536137174945877,0.8042161463720511,0.5718665447587311,0.2407477624372135,0.8019427407058913,0.7777821435677441,-0.06260782355170012,-0.3158929261501234,0.3739165127093991,0.3196641296133846,-0.3458191764395612,-0.2923090267540989,0.2167567410386204,783.2967032967033,786.1172161172161,786.5201465201466,783.2967032967033,944.4688644688645,-0.078003,0.030579,1.016602,4.575806,-7.656250,-4.635620,1,1,1,1,1,30.000000
2024-10-15 11:46:59.966,,,,,,,,,,,,,,,,,,,,,,,,,,,,,,,,,,,,,,/muse/elements/blink
2024-10-15 11:47:00.413,,,,,,,,,,,,,,,,,,,,,,,,,,,,,,,,,,,,,,/muse/elements/jaw_clench
2024-10-15 11:47:00.555,0.4944145406723849,0.08852045576626011,0.3028462930709101,0.3654036267280855,0.1682404522285605,0.2769206602436906,0.1143130832013238,0.4384068212912786,0.6176605339034411,0.5655525735433427,0.3481217467067586,0.8207729394539818,0.8087820603407869,-0.04781927974786884,-0.09547588269462765,0.4593764943349042,0.175545219273529,-0.2978738532398638,-0.2630245208569051,0.3114997991782804,1157.619047619048,804.2490842490843,812.3076923076924,955.7509157509157,672.4908424908425,-0.093689,-0.023132,1.023254,7.880554,-1.861725,-7.858124,1,1,1,1,1,30.000000
2024-10-15 11:47:00.604,,,,,,,,,,,,,,,,,,,,,,,,,,,,,,,,,,,,,,/muse/elements/blink
2024-10-15 11:47:01.555,0.2874498231404444,0.7140234649955587,0.5052628081445146,0.1895116318865344,0.14587646057912,0.569901383155732,0.3555876810994436,0.3760151279486221,0.5292639389052713,0.6743245107128779,0.2773295487791537,0.7152241630916257,0.7452600262661239,0.2482365273235767,0.03876132960148151,0.4753460243411295,0.01204829759002995,-0.07189330632646036,-0.2255808457805649,0.3722746100366424,1016.593406593407,817.948717948718,806.6666666666667,861.8681318681319,892.0879120879121,-0.109131,0.059082,1.031677,40.195312,-38.438263,11.207733,1,1,1,1,1,30.000000
2024-10-15 11:47:01.733,,,,,,,,,,,,,,,,,,,,,,,,,,,,,,,,,,,,,,/muse/elements/blink
2024-10-15 11:47:02.224,,,,,,,,,,,,,,,,,,,,,,,,,,,,,,,,,,,,,,/muse/elements/jaw_clench
2024-10-15 11:47:02.568,0.2874498231404444,0.8044578305195419,0.5408274319613786,0.1895116318865344,0.14587646057912,0.669452843621579,0.3610488746007385,0.3760151279486221,0.5292639389052713,0.5011869119582323,0.2773295487791537,0.7152241630916257,0.7452600262661239,0.3481570185914791,0.06970981938907096,0.4753460243411295,0.01204829759002995,0.03007946591027065,-0.1891450131619122,0.3722746100366424,726.4835164835165,786.9230769230769,796.996336996337,757.5091575091575,807.8754578754579,0.133362,0.055115,1.025146,14.766693,-13.390961,7.088013,1,2,1,1,2,30.000000
2024-10-15 11:47:03.055,,,,,,,,,,,,,,,,,,,,,,,,,,,,,,,,,,,,,,/muse/elements/blink
2024-10-15 11:47:03.556,0.2874498231404444,1.164399269565035,1.069556496667477,1.067718330538926,0.14587646057912,0.2018427650505299,0.4185160798165096,1.121737326792468,0.5292639389052713,0.2523951603094736,0.1965637307425347,0.8790982385087226,0.7452600262661239,0.1218286283229164,-0.1489390525844347,1.002438103367666,0.01204829759002995,-0.12608073187078,-0.3159039672767801,0.7057969318502986,884.8351648351648,796.1904761904763,787.3260073260074,818.3516483516484,812.7106227106227,0.122986,0.032959,1.022766,2.796326,-7.574005,-5.151520,1,1,1,1,1,30.000000
2024-10-15 11:47:04.060,,,,,,,,,,,,,,,,,,,,,,,,,,,,,,,,,,,,,,/muse/elements/blink
2024-10-15 11:47:04.554,0.5122997470958094,0.9069214754877749,0.8794368127268293,0.7215187701121579,0.4665487814634883,0.1668227780793945,0.2887907468642896,0.7661822633165758,0.752546163129848,0.2603787855516675,0.3825547578378697,0.9679654030911461,0.8979437563353632,0.1452130818138571,0.001853231719358211,0.9085518141095746,0.6162180846414798,-0.1978520633752965,-0.2379006381259089,0.7135556062884042,997.2527472527473,798.2051282051282,799.0109890109891,855.8241758241759,753.4798534798535,0.105530,0.022156,1.016541,6.160889,-7.940369,-16.934967,1,1,1,1,1,30.000000
2024-10-15 11:47:04.770,,,,,,,,,,,,,,,,,,,,,,,,,,,,,,,,,,,,,,/muse/elements/blink
2024-10-15 11:47:05.555,0.4835897826510097,-0.2845155347344051,0.7570118216989753,0.309102725149002,0.3992148587711881,-0.1557120346478577,0.1947260808073539,0.3098972990299095,0.4441850387555261,0.2659098706501871,0.328659448935033,0.5954244821356387,0.8159112635259889,-0.1432446218493907,0.2044774930394548,0.7714553620663699,0.4402762616888513,-0.2276501440893895,-0.2791332964882456,0.7755069135555402,695.8608058608058,785.3113553113553,781.2820512820513,747.032967032967,868.7179487179487,0.172668,0.028564,1.003357,6.160889,-11.716156,4.912262,1,1,1,1,1,30.000000
2024-10-15 11:47:06.555,0.7735878550354155,0.1870173207108512,0.7489230359207253,0.2810058609456192,0.4088065303002577,-0.3614987567924615,0.1389134581105243,0.3705018659212077,0.7208239477210026,0.2807020690754674,0.1529386475889785,0.8454812510690171,0.8069576526720919,-0.1627515426041827,0.09647015539265083,0.8475299284490122,0.6176228531316419,-0.1862926758997674,-0.2272531799420237,0.5839058226910974,865.4945054945056,803.4432234432235,771.6117216117216,802.6373626373627,769.1941391941392,0.205994,0.015381,0.997498,5.383301,-8.553467,-6.145935,1,1,1,1,1,30.000000
2024-10-15 11:47:06.688,,,,,,,,,,,,,,,,,,,,,,,,,,,,,,,,,,,,,,/muse/elements/blink
2024-10-15 11:47:07.555,0.7019949820489363,0.3032573818461705,0.6872693816839106,0.476575180896513,0.5637776630917293,-0.5346456265689308,0.3514184867433952,0.4187242124594902,1.127883194461278,0.06540092731756991,0.2940278554248281,1.094991626075035,0.9928161570691814,-0.07434245599288671,0.01354519931099884,0.8282591543562496,0.7714850664499041,-0.1193199870130339,-0.2082496144157918,0.6718846385996486,1219.267399267399,795.3846153846154,800.2197802197802,1007.728937728938,1211.611721611722,0.196899,0.031128,1.005005,3.813171,-7.073059,-6.392670,1,1,1,1,1,30.000000
2024-10-15 11:47:08.555,0.8738983091898149,0.1229469463552371,0.5703331985267271,0.5996634486318849,0.7466640871916315,-0.283498729683161,0.2875561411899834,0.4263836521073697,1.103100758635003,0.2035236066847993,0.2143659392897097,0.5754780685433356,1.101735872648887,-0.09199332968221613,0.05118426589582813,0.4858660460619892,0.8923402007652197,-0.1013221835084571,-0.246798254544227,0.5766183854607546,689.8168498168499,787.3260073260074,785.3113553113553,746.2271062271062,607.6190476190476,0.181335,0.031372,1.005127,3.813171,-8.508606,-8.785248,1,1,1,1,1,30.000000
2024-10-15 11:47:09.560,0.8738983091898149,-0.2121641887810229,0.8296296794445592,0.5996634486318849,0.7466640871916315,-0.04853781254501849,0.243793090664554,0.4263836521073697,1.103100758635003,0.3406307967088296,0.239987972139781,0.5754780685433356,1.101735872648887,-0.07646346751072078,-0.08977000945354557,0.4858660460619892,0.8923402007652197,-0.07192848657638987,-0.3084253484943638,0.5766183854607546,1124.175824175824,813.1135531135532,800.2197802197802,915.4578754578755,986.3736263736264,0.194580,0.026550,1.000610,4.388885,-8.059998,-1.988831,1,1,1,1,1,30.000000
2024-10-15 11:47:09.969,,,,,,,,,,,,,,,,,,,,,,,,,,,,,,,,,,,,,,/muse/elements/blink
2024-10-15 11:47:10.140,,,,,,,,,,,,,,,,,,,,,,,,,,,,,,,,,,,,,,/muse/elements/blink
2024-10-15 11:47:10.555,0.8738983091898149,0.7101537996143458,0.9714388683069781,0.5996634486318849,0.7466640871916315,0.6494923084698926,0.2676042143791647,0.4263836521073697,1.103100758635003,0.5409010183682073,0.4888297927862353,0.5754780685433356,1.101735872648887,-0.2200467625833314,-0.004179289154900363,0.4858660460619892,0.8923402007652197,-0.1004414586211653,-0.2695434994898512,0.5766183854607546,1018.608058608059,797.3992673992674,800.2197802197802,882.4175824175825,536.3003663003664,0.205139,0.032410,0.996460,4.299164,-9.024506,-5.869293,1,2,1,1,2,30.000000
2024-10-15 11:47:11.555,0.5110145421335729,0.7296251401173024,0.6390350206413478,0.1062576707195146,0.7657425023960573,0.6287129122659305,0.2368472708018382,0.3964651580872646,0.5413656663297084,0.4839946693631465,0.4540990909395707,0.03292132548322731,0.4164710616492056,-0.1603971799591,0.05155211478379716,0.6254648799465441,0.2990143827889499,-0.2048942398219614,-0.3329269576704181,0.5336537233161094,1169.70695970696,803.040293040293,778.4615384615385,961.7948717948718,572.967032967033,0.213379,0.033630,0.995239,5.039368,-6.878662,-3.641205,1,1,1,1,1,30.000000
2024-10-15 11:47:11.874,,,,,,,,,,,,,,,,,,,,,,,,,,,,,,,,,,,,,,/muse/elements/jaw_clench
2024-10-15 11:47:12.555,0.4522331568466055,-0.224066287966345,0.6066746337673365,0.1618056832125526,0.7042759356486404,-0.1401756721045995,0.2379820855085467,0.4134841389750726,0.6191107199853628,0.2126160335059209,0.3257758768433526,0.2356687199849473,0.4577582826591822,-0.2482599135111517,0.06079288529932049,0.5891769872116692,0.2961573732403434,-0.156415274937765,-0.1918254624682692,0.5520029564851088,899.3406593406594,752.6739926739926,640.6593406593407,821.5750915750916,724.4688644688645,0.205566,0.025146,0.997437,4.059906,-6.975861,-4.575806,1,1,1,1,1,30.000000
2024-10-15 11:47:12.771,,,,,,,,,,,,,,,,,,,,,,,,,,,,,,,,,,,,,,/muse/elements/jaw_clench
2024-10-15 11:47:13.050,,,,,,,,,,,,,,,,,,,,,,,,,,,,,,,,,,,,,,/muse/elements/blink
2024-10-15 11:47:13.507,,,,,,,,,,,,,,,,,,,,,,,,,,,,,,,,,,,,,,/muse/elements/blink
2024-10-15 11:47:13.555,0.3654265980696757,-0.5240731481127547,0.7798761770513142,0.229236085639606,0.612735908669612,-0.02888639421646108,0.3098747429967534,0.4346958390844987,0.5309811898021911,0.07881209773323687,0.2147930018512391,0.1805010335072651,0.5043940433169306,-0.268627094567464,0.1486477911936023,0.5564596698278959,0.292559476464523,-0.1361666522638991,-0.0746953941781454,0.5661858256246773,1059.304029304029,825.2014652014652,826.007326007326,923.5164835164835,771.6117216117216,0.136658,0.051270,1.010498,3.820648,-2.011261,-7.327271,1,1,1,4,1,30.000000
2024-10-15 11:47:14.555,0.3654265980696757,-0.5240731481127547,0.7798761770513142,0.229236085639606,0.612735908669612,-0.02888639421646108,0.3098747429967534,0.4346958390844987,0.5309811898021911,0.07881209773323687,0.2147930018512391,0.1805010335072651,0.5043940433169306,-0.268627094567464,0.1486477911936023,0.5564596698278959,0.292559476464523,-0.1361666522638991,-0.0746953941781454,0.5661858256246773,725.6776556776557,781.2820512820513,778.8644688644689,747.032967032967,807.8754578754579,0.134460,0.033997,1.005859,5.076752,-7.252502,-5.383301,1,1,1,1,1,30.000000
2024-10-15 11:47:15.555,0.1731114929371366,-0.3679734790038928,0.7798761770513142,0.4595666812991707,0.1016290986236252,-0.1538060111817723,0.3098747429967534,0.3524605216538571,0.627565195669131,0.1009031099144605,0.2147930018512391,0.7627091076995669,0.9146691476573774,0.3585862116945583,0.1486477911936023,0.7825096701540862,0.9536753862388749,0.07393184385177476,-0.0746953941781454,0.8257618247526652,1200.732600732601,795.7875457875458,759.92673992674,993.2234432234433,859.4505494505495,0.130676,0.031616,1.012817,4.732819,-7.431946,-4.456177,1,1,1,1,1,30.000000
2024-10-15 11:47:16.554,0.3239668619560244,-0.1296936432115256,0.7798761770513142,0.4478807289076744,0.3054796307312358,-0.2413149487952239,0.3098747429967534,0.3747424135979021,0.7548140926229413,0.3496368460827079,0.2147930018512391,0.826042289468325,0.8385594339241706,0.1952341952386349,0.1486477911936023,0.5863902707257483,0.695415869424222,0.2093403094878639,-0.0746953941781454,0.5836712110301909,1085.494505494506,803.4432234432235,804.2490842490843,920.6959706959707,842.1245421245421,0.140137,0.036194,1.009521,4.673004,-6.953430,-4.329071,1,1,1,1,1,25.000000
2024-10-15 11:47:17.105,,,,,,,,,,,,,,,,,,,,,,,,,,,,,,,,,,,,,,/muse/elements/jaw_clench
2024-10-15 11:47:17.555,0.6897388301299145,0.3100199115228972,0.7798761770513142,0.4117248265825986,0.8510002421889505,-0.127581602790071,0.3098747429967534,0.6845965963110524,1.15962317909558,0.3946563388741523,0.2147930018512391,0.8878553789640374,0.9770073094854376,0.2956374458859852,0.1486477911936023,0.7142794610894566,0.7752179192355761,0.1297328870118257,-0.0746953941781454,0.5427521828956264,1174.542124542125,816.7399267399268,801.025641025641,955.7509157509157,706.7399267399268,0.138000,0.039978,1.007446,4.987030,-8.374023,-3.043060,1,1,1,1,1,25.000000
2024-10-15 11:47:18.554,0.5938935203002306,0.6206666883398563,0.7798761770513142,0.4158129728162351,0.8099584111156551,-0.04306770848356909,0.3098747429967534,0.7157073221235687,1.126919718612365,0.2433246834410029,0.2147930018512391,0.7643787526589957,0.8960922998427487,0.2131046362594229,0.1486477911936023,0.7667191132646111,0.5878753777688084,-0.2076826177235633,-0.0746953941781454,0.5514375026300392,1018.205128205128,799.0109890109891,806.6666666666667,893.2967032967033,761.5384615384615,0.161072,0.038635,1.007690,5.099182,-7.484283,-1.712189,1,1,1,1,1,25.000000
2024-10-15 11:47:18.870,,,,,,,,,,,,,,,,,,,,,,,,,,,,,,,,,,,,,,/muse/elements/jaw_clench
2024-10-15 11:47:19.555,0.4774168287098963,0.09661591460701739,1.179229395028256,-0.1317052274909969,0.6170665639256844,-0.05173296033095473,0.3808942476479285,0.41004281347754,1.10440015482727,0.4944376197881975,0.6286898809641093,0.8971881163517194,0.865431458145282,-0.002157270888683863,0.3005577816756101,0.7004106699777861,0.5585403121719644,-0.3408723198038658,-0.04495397616387206,0.4922327048598151,1162.454212454212,802.2344322344322,811.0989010989011,949.7069597069598,835.6776556776557,0.153320,0.040527,1.010681,2.938385,-5.831909,-8.703003,1,1,1,1,1,25.000000
2024-10-15 11:47:20.555,0.860632124555015,0.1803335448991377,1.207991295351549,0.2986985796499838,0.7193943559478994,0.09655828523298597,0.2263059454489569,0.4429072970480184,1.102958189750971,0.6228249105970696,0.6292728509880383,0.9155860881794272,0.7838075628277766,0.01595640684815196,0.1792701236264959,0.5982465727238647,0.3860113485622509,-0.2544972379877839,-0.01967671833951658,0.4578685130840417,1240.21978021978,797.8021978021978,817.948717948718,994.0293040293041,880.8058608058608,0.133911,0.022400,1.013672,2.975769,-4.687958,-5.787048,1,1,1,1,1,25.000000
2024-10-15 11:47:20.707,,,,,,,,,,,,,,,,,,,,,,,,,,,,,,,,,,,,,,/muse/elements/jaw_clench
2024-10-15 11:47:21.555,0.9854460742684168,-0.128817433717776,1.175691792551857,0.6103235411145344,0.6721247422596004,0.237461728750283,0.2700802971854622,0.3073005362794528,0.9327111427039917,0.4804805153280143,0.3419773481729621,0.5491178439382641,0.6577930900773067,0.1063128725899567,0.1359020467153709,0.6040230867498962,0.3326802832496451,-0.2555510629877269,0.07581347730163399,0.4809895018039743,1137.472527472527,826.8131868131868,536.7032967032967,936.007326007326,1035.128205128205,0.138550,0.002808,1.015137,1.203766,0.927124,-6.549683,1,1,1,1,1,25.000000
2024-10-15 11:47:22.024,,,,,,,,,,,,,,,,,,,,,,,,,,,,,,,,,,,,,,/muse/elements/blink
2024-10-15 11:47:22.265,,,,,,,,,,,,,,,,,,,,,,,,,,,,,,,,,,,,,,/muse/elements/jaw_clench
2024-10-15 11:47:22.436,,,,,,,,,,,,,,,,,,,,,,,,,,,,,,,,,,,,,,/muse/elements/jaw_clench
2024-10-15 11:47:22.555,0.9854460742684168,-0.254569815831561,1.265444329081059,0.7619693556825688,0.6721247422596004,0.273380048907886,0.2868802651426341,0.1955440835478234,0.9327111427039917,0.4304192475184234,0.311185870468161,0.5156568416701447,0.6577930900773067,0.1026383840928876,0.1506802717627639,0.6211715981586056,0.3326802832496451,-0.2475374128175657,0.1021322751119971,0.3922702667301805,1195.897435897436,821.1721611721612,847.7655677655678,994.8351648351648,734.9450549450549,0.113647,0.025269,1.016724,4.261780,-8.359070,-2.998199,1,1,1,2,1,25.000000
2024-10-15 11:47:23.073,,,,,,,,,,,,,,,,,,,,,,,,,,,,,,,,,,,,,,/muse/elements/jaw_clench
2024-10-15 11:47:23.500,,,,,,,,,,,,,,,,,,,,,,,,,,,,,,,,,,,,,,/muse/elements/jaw_clench
2024-10-15 11:47:23.555,0.9854460742684168,-0.254569815831561,0.6298078035874993,0.7619693556825688,0.6721247422596004,0.273380048907886,0.4617974275023353,0.1955440835478234,0.9327111427039917,0.4304192475184234,0.01049573807760253,0.5156568416701447,0.6577930900773067,0.1026383840928876,0.08848806954423867,0.6211715981586056,0.3326802832496451,-0.2475374128175657,-0.1286104854401341,0.3922702667301805,1032.307692307692,810.6959706959707,818.3516483516484,909.8168498168499,821.5750915750916,0.113708,0.018860,1.012451,3.798218,-7.058105,-3.835602,1,2,1,1,2,25.000000
2024-10-15 11:47:23.650,,,,,,,,,,,,,,,,,,,,,,,,,,,,,,,,,,,,,,/muse/elements/jaw_clench
2024-10-15 11:47:23.971,,,,,,,,,,,,,,,,,,,,,,,,,,,,,,,,,,,,,,/muse/elements/blink
2024-10-15 11:47:24.355,,,,,,,,,,,,,,,,,,,,,,,,,,,,,,,,,,,,,,/muse/elements/jaw_clench
2024-10-15 11:47:24.563,0.9854460742684168,0.7231920004988728,0.685557664837983,0.7619693556825688,0.6721247422596004,0.1521207378875835,0.2869728139354248,0.1955440835478234,0.9327111427039917,0.1625299265375998,0.04796183605577854,0.5156568416701447,0.6577930900773067,0.1671696237315722,0.05667252549662979,0.6211715981586056,0.3326802832496451,0.2381415295574713,0.1237165881823056,0.3922702667301805,1142.307692307692,817.1428571428571,825.2014652014652,972.2710622710623,1122.564102564103,0.104919,0.027039,1.013245,5.181427,-8.045044,-3.768311,1,2,1,1,2,25.000000
2024-10-15 11:47:24.954,,,,,,,,,,,,,,,,,,,,,,,,,,,,,,,,,,,,,,/muse/elements/jaw_clench
2024-10-15 11:47:25.237,,,,,,,,,,,,,,,,,,,,,,,,,,,,,,,,,,,,,,/muse/elements/jaw_clench
2024-10-15 11:47:25.555,-0.2068894762102916,0.6304101436635867,0.8367713967388289,0.06963166963150509,-0.2306755278836036,0.167725575477798,-0.01727453226359221,-0.03407152361182467,0.8240120174956654,0.2761679848532482,-0.1166185343844142,0.8178617882084293,0.7185552055591926,-0.03887826431895216,0.03467887501010627,0.6565149607050031,0.2861530736577915,-0.02665218287889429,0.07203277925620276,0.4174353742030924,1221.282051282051,821.5750915750916,826.007326007326,1009.340659340659,1002.490842490843,0.083801,0.014526,1.013123,1.973877,-4.403839,-6.258087,1,1,1,1,1,25.000000
2024-10-15 11:47:26.098,,,,,,,,,,,,,,,,,,,,,,,,,,,,,,,,,,,,,,/muse/elements/jaw_clench
2024-10-15 11:47:26.289,,,,,,,,,,,,,,,,,,,,,,,,,,,,,,,,,,,,,,/muse/elements/jaw_clench
2024-10-15 11:47:26.562,0.3009407357017654,0.653475858016351,0.9005408872184871,0.3836888722212899,0.2106703837898443,0.1165029060823383,0.4958360797869546,0.2474823085998899,0.9430390232087494,0.3199338914600819,0.4402597099975252,0.8928616851844325,0.7926717770267261,0.1517681605294115,0.153115490912382,0.7093163852522844,0.4345823892452493,-0.1841637528203901,-0.0311615896073772,0.5056165565206517,1109.267399267399,803.040293040293,819.5604395604396,931.978021978022,834.0659340659341,0.123047,0.031128,1.013062,4.299164,-7.416992,-3.663635,1,1,1,1,1,25.000000
2024-10-15 11:47:27.554,0.4506950342201539,0.1974989387791839,0.4067663074688875,0.3881490877828356,0.4871129574814109,-0.008165551775477392,0.258341045179224,0.3035246820865133,0.8786238633254785,0.3901784282066239,0.5601328661037255,0.895315894754302,0.9070612357831109,0.1555833528062681,0.1062601074519241,0.6695224561920616,0.6098996005559199,-0.1795393653738707,0.01105146687985094,0.7195898617731985,1195.494505494506,803.040293040293,813.1135531135532,977.1062271062272,931.5750915750916,0.122498,0.029602,1.011475,4.934692,-6.968384,-4.433746,1,1,1,1,1,25.000000
2024-10-15 11:47:28.554,0.269194656386844,0.1915758941610647,0.4282289995254518,0.3427259830043936,0.375065193461332,-0.1084891642197187,-0.008139682645005638,0.02228447124946659,0.7988976289133668,0.2117594691131775,0.3817390782636082,0.7162875296691978,0.8199887382209446,-0.01704743139281906,0.0173597529871346,0.575623051115342,0.7759604183885361,-0.03827563779875934,-0.005762129401194136,0.7310490801401378,1055.677655677656,797.8021978021978,794.1758241758242,908.6080586080586,1149.96336996337,0.139954,0.019226,1.010803,4.089813,-7.626343,-4.276733,1,1,1,1,1,25.000000
2024-10-15 11:47:29.555,0.2404713638399979,0.2812993306686565,0.6474421693620568,0.3001333629323134,0.5328476055974943,-0.016241802756629,0.0844331120818643,0.0988169758271993,0.829940263386129,0.2390658362675359,0.1534382606774367,0.5762238474639709,0.7712641825204616,0.03255780303643142,0.1567735755199574,0.5661617620178404,0.6079652410737411,-0.03158400125958986,-0.1369599351264323,0.5628414347170738,1198.717948717949,805.4578754578755,817.5457875457876,954.9450549450549,894.1025641025641,0.128906,0.037109,1.008362,7.454376,-5.510406,0.194397,1,1,1,1,1,25.000000
2024-10-15 11:47:30.449,,,,,,,,,,,,,,,,,,,,,,,,,,,,,,,,,,,,,,/muse/elements/jaw_clench
2024-10-15 11:47:30.554,0.2384829963699747,-0.05341095574013178,0.7099563142825752,0.1960906102702021,0.6398671180801061,0.02436670318412279,0.03389046250759552,0.1660342185693608,0.9969553918291025,0.3460954190188738,0.4434800629148997,0.831193759146944,0.901446558390897,-0.03767872708573063,0.008917844574220814,0.6743892743029903,0.6826968351725868,-0.1629528359564036,-0.1951193562566228,0.5514052962101245,912.6373626373627,900.952380952381,368.6813186813187,862.6739926739926,1042.380952380953,0.121277,0.006592,1.021484,3.005676,-5.630035,0.874786,1,1,1,1,1,25.000000
2024-10-15 11:47:31.555,0.5943238852698602,-0.09760412443100695,0.3218242331821417,0.4735644270927494,0.5765100714556812,0.02771838307810239,-0.3162137737054808,0.5108628212374785,0.8888209374519933,0.2745874285728407,0.3929523318355899,1.142805342208419,1.142831155281134,-0.09449737351816145,-0.07877348007163086,1.165396114134864,0.903303781830337,-0.08817080723238954,-0.05976255666715692,0.7917918960951588,1115.714285714286,864.6886446886447,880.8058608058608,935.6043956043957,909.4139194139194,0.076416,-0.005737,1.020630,4.291687,-11.775970,-5.308533,1,1,1,4,1,25.000000
2024-10-15 11:47:32.556,0.5943238852698602,-0.09760412443100695,0.3218242331821417,0.8073722818282622,0.5765100714556812,0.02771838307810239,-0.3162137737054808,0.7178721112025539,0.8888209374519933,0.2745874285728407,0.3929523318355899,1.150922198703486,1.142831155281134,-0.09449737351816145,-0.07877348007163086,1.333749228340973,0.903303781830337,-0.08817080723238954,-0.05976255666715692,1.148300800293315,1182.600732600733,904.1758241758242,1046.410256410256,969.8534798534798,1015.787545787546,0.130066,-0.016052,1.008362,8.082428,-7.319794,-6.355286,1,1,1,4,1,25.000000
2024-10-15 11:47:32.978,,,,,,,,,,,,,,,,,,,,,,,,,,,,,,,,,,,,,,/muse/elements/jaw_clench
2024-10-15 11:47:33.382,,,,,,,,,,,,,,,,,,,,,,,,,,,,,,,,,,,,,,/muse/elements/jaw_clench
2024-10-15 11:47:33.554,0.5943238852698602,-0.09760412443100695,0.3218242331821417,0.7657320368555124,0.5765100714556812,0.02771838307810239,-0.3162137737054808,0.9391634345282671,0.8888209374519933,0.2745874285728407,0.3929523318355899,1.078148463370081,1.142831155281134,-0.09449737351816145,-0.07877348007163086,0.9053034995611718,0.903303781830337,-0.08817080723238954,-0.05976255666715692,0.5504564357028447,1189.047619047619,843.3333333333334,890.4761904761905,998.0586080586081,973.4798534798535,0.138428,-0.008179,1.014160,4.575806,-7.873077,-2.347717,1,1,1,1,1,25.000000
2024-10-15 11:47:33.723,,,,,,,,,,,,,,,,,,,,,,,,,,,,,,,,,,,,,,/muse/elements/jaw_clench
2024-10-15 11:47:34.022,,,,,,,,,,,,,,,,,,,,,,,,,,,,,,,,,,,,,,/muse/elements/jaw_clench
2024-10-15 11:47:34.212,,,,,,,,,,,,,,,,,,,,,,,,,,,,,,,,,,,,,,/muse/elements/jaw_clench
2024-10-15 11:47:34.554,0.8096485510743685,1.164226700859474,0.3218242331821417,0.7707713050461796,1.09970631202815,0.250034555470813,-0.3162137737054808,0.8695584252479406,1.128509579982915,0.5866299804548337,0.3929523318355899,1.111850719200567,0.9807727293546568,-0.1091300172817393,-0.07877348007163086,0.7538180265296908,0.5539428764668435,-0.1032456522759706,-0.05976255666715692,0.4416695259446415,1057.289377289377,801.8315018315019,794.5787545787546,931.5750915750916,905.7875457875458,0.161011,-0.004211,1.005127,4.418793,-4.119720,-0.530853,1,1,1,1,1,25.000000
2024-10-15 11:47:34.614,,,,,,,,,,,,,,,,,,,,,,,,,,,,,,,,,,,,,,/muse/elements/jaw_clench
2024-10-15 11:47:35.043,,,,,,,,,,,,,,,,,,,,,,,,,,,,,,,,,,,,,,/muse/elements/jaw_clench
2024-10-15 11:47:35.215,,,,,,,,,,,,,,,,,,,,,,,,,,,,,,,,,,,,,,/muse/elements/jaw_clench
2024-10-15 11:47:35.555,0.8096485510743685,0.8439158648432115,0.3218242331821417,0.5308093894394751,1.09970631202815,0.3772006871411863,-0.3162137737054808,0.08228879078883387,1.128509579982915,0.5028561448845011,0.3929523318355899,0.6374720388709503,0.9807727293546568,-0.04563111606638755,-0.07877348007163086,0.6164598733501964,0.5539428764668435,-0.02801094395032329,-0.05976255666715692,0.3432409202347526,827.6190476190476,778.4615384615385,780.4761904761905,815.934065934066,874.7619047619048,0.121155,-0.009155,1.009583,4.336548,-9.271240,-4.598236,1,1,1,1,1,25.000000
2024-10-15 11:47:35.556,,,,,,,,,,,,,,,,,,,,,,,,,,,,,,,,,,,,,,/muse/elements/jaw_clench
2024-10-15 11:47:36.180,,,,,,,,,,,,,,,,,,,,,,,,,,,,,,,,,,,,,,/muse/elements/jaw_clench
2024-10-15 11:47:36.560,0.8096485510743685,0.9041597058275344,0.3218242331821417,0.4339660711129122,1.09970631202815,0.4647578558466122,-0.3162137737054808,-0.02557808187858561,1.128509579982915,0.494912395439314,0.3929523318355899,0.4953976907247096,0.9807727293546568,-0.06772880582311372,-0.07877348007163086,0.6170851560511296,0.5539428764668435,-0.05300947906790705,-0.05976255666715692,0.3331085499260377,1145.934065934066,797.8021978021978,829.6336996336996,974.2857142857143,769.5970695970697,0.119751,-0.012207,1.008606,4.329071,-7.461853,-9.263763,1,1,1,1,1,25.000000
2024-10-15 11:47:36.780,,,,,,,,,,,,,,,,,,,,,,,,,,,,,,,,,,,,,,/muse/elements/jaw_clench
2024-10-15 11:47:37.252,,,,,,,,,,,,,,,,,,,,,,,,,,,,,,,,,,,,,,/muse/elements/jaw_clench
2024-10-15 11:47:37.555,0.8096485510743685,0.9365666406941073,0.3218242331821417,0.4339660711129122,1.09970631202815,0.2975178642799021,-0.3162137737054808,-0.02557808187858561,1.128509579982915,-0.01347764254741191,0.3929523318355899,0.4953976907247096,0.9807727293546568,-0.2017855840549503,-0.07877348007163086,0.6170851560511296,0.5539428764668435,0.01923387850629429,-0.05976255666715692,0.3331085499260377,473.4432234432235,780.4761904761905,813.919413919414,672.893772893773,807.0695970695971,0.121887,-0.002075,1.011230,4.680481,-6.317902,-4.403839,1,2,1,1,2,25.000000
2024-10-15 11:47:38.280,,,,,,,,,,,,,,,,,,,,,,,,,,,,,,,,,,,,,,/muse/elements/jaw_clench
2024-10-15 11:47:38.555,0.1149557675714287,0.03922837861858076,0.3218242331821417,0.2657043121310832,0.772491414914767,-0.2966413763960939,-0.3162137737054808,0.4604749917195748,0.6045540699035378,-0.06959906482662451,0.3929523318355899,0.806311195462282,0.6805081323671478,0.03169294874110624,-0.07877348007163086,0.4845418418919457,0.612246041471658,-0.05339781157780587,-0.05976255666715692,0.4359023553900011,653.5531135531136,789.3406593406594,781.6849816849817,751.8681318681319,760.3296703296703,0.142456,-0.010132,1.003723,4.725342,-7.932892,-2.542114,1,1,1,1,1,25.000000
2024-10-15 11:47:38.642,,,,,,,,,,,,,,,,,,,,,,,,,,,,,,,,,,,,,,/muse/elements/jaw_clench
2024-10-15 11:47:39.554,0.3380017319636025,0.08506743915172452,0.3218242331821417,0.2553390378611182,0.4745708557544387,-0.3062862104418026,-0.3162137737054808,0.3177697079843737,0.7056886773294323,-0.01760667707383057,0.3929523318355899,0.7932974546344332,0.7792972442015372,-0.1390991221881025,-0.07877348007163086,0.6437279114072257,0.6325718258550916,-0.1582111909309989,-0.05976255666715692,0.5247724636407259,958.1684981684982,781.6849816849817,407.7655677655678,884.4322344322345,900.5494505494506,0.143982,-0.010437,1.016174,2.758942,-4.658051,-6.893616,1,1,1,1,1,25.000000
2024-10-15 11:47:39.686,,,,,,,,,,,,,,,,,,,,,,,,,,,,,,,,,,,,,,/muse/elements/blink
2024-10-15 11:47:39.832,,,,,,,,,,,,,,,,,,,,,,,,,,,,,,,,,,,,,,/muse/elements/jaw_clench
2024-10-15 11:47:39.938,,,,,,,,,,,,,,,,,,,,,,,,,,,,,,,,,,,,,,/muse/elements/blink
2024-10-15 11:47:40.282,,,,,,,,,,,,,,,,,,,,,,,,,,,,,,,,,,,,,,/muse/elements/jaw_clench
2024-10-15 11:47:40.555,0.9298586936814751,0.8951263150903065,0.3218242331821417,0.8590706467792036,0.890994818084592,0.9195759895233743,-0.3162137737054808,0.7678572971358761,0.939639480931739,1.203012566352746,0.3929523318355899,0.9032920788147435,0.8454615406150838,0.5197127152613141,-0.07877348007163086,0.8273492691892296,0.5964788525337333,0.08648068326003697,-0.05976255666715692,0.5625748681549555,764.3589743589744,808.2783882783883,779.6703296703297,789.7435897435897,695.4578754578755,0.141174,-0.017822,1.015198,5.443115,-6.624451,-2.332764,1,1,1,1,1,25.000000
2024-10-15 11:47:41.065,,,,,,,,,,,,,,,,,,,,,,,,,,,,,,,,,,,,,,/muse/elements/jaw_clench
2024-10-15 11:47:41.515,,,,,,,,,,,,,,,,,,,,,,,,,,,,,,,,,,,,,,/muse/elements/blink
2024-10-15 11:47:41.515,,,,,,,,,,,,,,,,,,,,,,,,,,,,,,,,,,,,,,/muse/elements/jaw_clench
2024-10-15 11:47:41.555,0.9298586936814751,0.07980086385642539,0.3218242331821417,0.8590706467792036,0.890994818084592,-0.1426781244155757,-0.3162137737054808,0.7678572971358761,0.939639480931739,-0.06372186414097615,0.3929523318355899,0.9032920788147435,0.8454615406150838,-0.04612253394764834,-0.07877348007163086,0.8273492691892296,0.5964788525337333,0.119570956041099,-0.05976255666715692,0.5625748681549555,557.2527472527472,796.996336996337,825.2014652014652,700.6959706959707,870.3296703296703,0.143188,-0.017822,1.004272,4.329071,-7.140350,-4.695435,1,1,1,1,1,25.000000
2024-10-15 11:47:42.114,,,,,,,,,,,,,,,,,,,,,,,,,,,,,,,,,,,,,,/muse/elements/jaw_clench
2024-10-15 11:47:42.554,0.1987619712516045,0.2477368324302001,0.3218242331821417,0.5065573677590798,0.785224121105922,0.1739033024083625,-0.3162137737054808,0.9126261190523404,1.057303827816586,0.5201763580132166,0.3929523318355899,1.161273586289352,1.073843704657624,0.1792145818086292,-0.07877348007163086,0.8185985656006898,0.7597914921616838,0.06653753086389087,-0.05976255666715692,0.752295882343069,836.0805860805862,801.4285714285714,815.934065934066,821.978021978022,836.4835164835165,0.158142,-0.030457,1.006165,3.222504,-6.459961,-6.250610,1,1,1,1,1,25.000000
2024-10-15 11:47:42.628,,,,,,,,,,,,,,,,,,,,,,,,,,,,,,,,,,,,,,/muse/elements/jaw_clench
2024-10-15 11:47:43.554,0.5242767225094007,0.2528518892980606,1.230059035275608,0.4948260579570559,0.6383062622105498,0.240596015543394,0.8678978182566595,0.7848470454444638,1.069209238709552,0.6074878020336587,0.7318971316600843,1.126580624589682,0.946682892495916,0.1408923843928271,0.1564464622314393,0.8495264509973903,0.7363400003931563,0.1028389763666681,0.07386215790197735,0.7804679379134742,645.8974358974359,797.3992673992674,783.6996336996338,720.8424908424909,760.7326007326008,0.152039,-0.036865,1.012817,4.441223,-5.996399,-3.409424,1,1,1,1,1,25.000000
2024-10-15 11:47:43.574,,,,,,,,,,,,,,,,,,,,,,,,,,,,,,,,,,,,,,/muse/elements/jaw_clench
2024-10-15 11:47:43.958,,,,,,,,,,,,,,,,,,,,,,,,,,,,,,,,,,,,,,/muse/elements/jaw_clench
2024-10-15 11:47:44.554,0.6205770417993829,0.2449805039560941,1.315630082467151,0.7296378437801679,0.6109284254204105,0.0557645801709658,1.030047148633127,0.7973119869054003,0.9053647641564111,0.3252813277298522,0.4177635603013479,0.9221255328430055,0.7792918298027668,-0.03251760670362421,0.2101972188192214,0.8784165316831202,0.5852737361304579,-0.02329229161110495,0.1900918220568783,0.531177605112133,487.5457875457876,789.7435897435897,792.1611721611722,670.8791208791209,652.7472527472528,0.149841,-0.032837,1.007385,5.241241,-7.237549,0.067291,1,1,1,1,1,25.000000
2024-10-15 11:47:44.793,,,,,,,,,,,,,,,,,,,,,,,,,,,,,,,,,,,,,,/muse/elements/jaw_clench
2024-10-15 11:47:45.479,,,,,,,,,,,,,,,,,,,,,,,,,,,,,,,,,,,,,,/muse/elements/jaw_clench
2024-10-15 11:47:45.554,0.4967067107489038,-0.09195580552716168,1.30145573254788,0.6904791099768818,0.5937754062026093,-0.1375609083050827,1.107543393964096,0.3348152078832619,0.8431823001862656,0.3685277872534283,0.2764195710509551,0.5388930719550216,0.9304404966839108,0.006269958055590362,0.231468657227075,0.7910877321850157,0.7351438388094603,0.02550027870889949,0.2467290271593645,0.583472561666981,720.8424908424909,781.6849816849817,759.5238095238095,755.8974358974359,778.0586080586081,0.155640,-0.028137,1.005066,4.231873,-7.476807,-3.484192,1,1,1,1,1,25.000000
2024-10-15 11:47:46.014,,,,,,,,,,,,,,,,,,,,,,,,,,,,,,,,,,,,,,/muse/elements/jaw_clench
2024-10-15 11:47:46.379,,,,,,,,,,,,,,,,,,,,,,,,,,,,,,,,,,,,,,/muse/elements/jaw_clench
2024-10-15 11:47:46.554,0.8531930514058002,-0.00580919323392686,1.30145573254788,0.7321983772958341,0.9672149622170884,0.1014674512804661,1.107543393964096,0.8540193731006638,1.142684226438492,0.5616983513184385,0.2764195710509551,1.263489403249219,0.9053503335994566,0.004556716563567753,0.231468657227075,0.641299261389361,0.7315015718252195,0.04535738114275606,0.2467290271593645,0.5801069411454891,549.1941391941392,789.7435897435897,770,707.1428571428571,660.4029304029305,0.160034,-0.024597,1.008667,5.622559,-6.639404,-3.499146,1,1,1,1,1,30.000000
2024-10-15 11:47:47.018,,,,,,,,,,,,,,,,,,,,,,,,,,,,,,,,,,,,,,/muse/elements/jaw_clench
2024-10-15 11:47:47.217,,,,,,,,,,,,,,,,,,,,,,,,,,,,,,,,,,,,,,/muse/elements/jaw_clench
2024-10-15 11:47:47.554,1.175472704867164,-0.1165453760573473,1.176963584666971,0.8373484196236072,1.345748872113533,0.1114940996712925,0.7798224130550333,0.947043353460173,1.021004430438712,0.4388056475617514,0.272908965547997,1.263489403249219,0.8517527611274232,-0.05314884459482292,-0.02278517559592155,0.5863441101994631,0.5903385659269175,0.03564559033553499,0.1133104365171116,0.4782346096088721,450.4761904761905,793.7728937728938,750.2564102564103,644.2857142857143,670.4761904761905,0.134705,-0.025391,1.013611,4.306641,-6.168365,-4.097290,1,1,1,1,1,30.000000
2024-10-15 11:47:48.117,,,,,,,,,,,,,,,,,,,,,,,,,,,,,,,,,,,,,,/muse/elements/jaw_clench
2024-10-15 11:47:48.555,1.175472704867164,0.09460493398575165,1.166687767160079,0.4784159973273494,1.345748872113533,-0.06742219337709972,0.7464939936112768,0.3314168841865351,1.021004430438712,0.4532860392321676,0.1134627169829898,0.6199247030791141,0.8517527611274232,0.02408069916718064,0.04055307238316059,0.1830772546769218,0.5903385659269175,0.1423314164554593,0.06952699929364636,0.3923085775155454,620.1098901098901,798.6080586080586,784.9084249084249,713.992673992674,772.8205128205128,0.135803,-0.025513,1.011230,5.435638,-5.293579,-2.400055,1,1,1,1,1,30.000000
2024-10-15 11:47:48.627,,,,,,,,,,,,,,,,,,,,,,,,,,,,,,,,,,,,,,/muse/elements/jaw_clench
2024-10-15 11:47:49.143,,,,,,,,,,,,,,,,,,,,,,,,,,,,,,,,,,,,,,/muse/elements/jaw_clench
2024-10-15 11:47:49.229,,,,,,,,,,,,,,,,,,,,,,,,,,,,,,,,,,,,,,/muse/elements/blink
2024-10-15 11:47:49.554,1.267532440191266,-0.05294013057216682,1.166687767160079,1.201406875389541,1.163278108003099,-0.2098592587670495,0.7464939936112768,1.03502682040088,1.186690232244572,0.3061035186164624,0.1134627169829898,1.028454606664352,0.8884785311491726,-0.03547291832183039,0.04055307238316059,0.8079246669706186,0.7373283828170702,0.02474612986102067,0.06952699929364636,0.6449464284641485,515.7509157509157,797.3992673992674,770.4029304029305,686.996336996337,689.8168498168499,0.132263,-0.014038,1.013977,5.510406,-6.908569,-3.043060,1,1,1,1,1,30.000000
2024-10-15 11:47:49.657,,,,,,,,,,,,,,,,,,,,,,,,,,,,,,,,,,,,,,/muse/elements/blink
2024-10-15 11:47:50.069,,,,,,,,,,,,,,,,,,,,,,,,,,,,,,,,,,,,,,/muse/elements/blink
2024-10-15 11:47:50.197,,,,,,,,,,,,,,,,,,,,,,,,,,,,,,,,,,,,,,/muse/elements/jaw_clench
2024-10-15 11:47:50.540,,,,,,,,,,,,,,,,,,,,,,,,,,,,,,,,,,,,,,/muse/elements/jaw_clench
2024-10-15 11:47:50.554,1.316888712378255,1.009107343213039,1.166687767160079,1.235758458594278,1.235744969257126,0.5760869531855325,0.7464939936112768,1.087371685979143,1.166228691238211,0.8025529640555373,0.1134627169829898,0.899578377056903,0.8537281408771669,-0.02425930056449004,0.04055307238316059,0.78925639401153,0.6588858095658933,-0.03026061216988736,0.06952699929364636,0.6561676533730986,756.7032967032967,791.7582417582418,787.7289377289378,795.7875457875458,789.7435897435897,0.129944,-0.017700,1.013306,4.284210,-6.699219,-4.987030,1,1,1,1,1,30.000000
2024-10-15 11:47:50.797,,,,,,,,,,,,,,,,,,,,,,,,,,,,,,,,,,,,,,/muse/elements/jaw_clench
2024-10-15 11:47:50.969,,,,,,,,,,,,,,,,,,,,,,,,,,,,,,,,,,,,,,/muse/elements/jaw_clench
2024-10-15 11:47:51.159,,,,,,,,,,,,,,,,,,,,,,,,,,,,,,,,,,,,,,/muse/elements/jaw_clench
2024-10-15 11:47:51.558,1.316888712378255,0.6735763206478704,1.166687767160079,1.235758458594278,1.235744969257126,0.4002781411704827,0.7464939936112768,1.087371685979143,1.166228691238211,0.8375152252918113,0.1134627169829898,0.899578377056903,0.8537281408771669,0.1262974156235805,0.04055307238316059,0.78925639401153,0.6588858095658933,-0.086857905497044,0.06952699929364636,0.6561676533730986,583.040293040293,822.7838827838829,768.7912087912088,716.8131868131868,683.7728937728938,0.136841,-0.011780,1.008240,4.972076,-6.145935,-4.598236,1,1,1,1,1,30.000000
2024-10-15 11:47:52.018,,,,,,,,,,,,,,,,,,,,,,,,,,,,,,,,,,,,,,/muse/elements/jaw_clench
2024-10-15 11:47:52.294,,,,,,,,,,,,,,,,,,,,,,,,,,,,,,,,,,,,,,/muse/elements/jaw_clench
2024-10-15 11:47:52.565,0.9309510019732212,0.6188190298291821,1.166687767160079,0.5609295148953993,1.066270745652932,0.3719306298661414,0.7464939936112768,0.8013407902172922,1.373779948071604,0.6828261335344668,0.1134627169829898,1.046644161789811,0.7894967030024844,0.2151620370226523,0.04055307238316059,0.7204255749468825,0.6068019941445142,-0.06199486831193077,0.06952699929364636,0.6292660456379272,472.6373626373626,794.981684981685,778.0586080586081,659.1941391941392,536.7032967032967,0.139771,-0.013977,1.014709,4.441223,-6.953430,-4.418793,1,1,1,1,1,30.000000
2024-10-15 11:47:52.890,,,,,,,,,,,,,,,,,,,,,,,,,,,,,,,,,,,,,,/muse/elements/jaw_clench
2024-10-15 11:47:53.554,0.5653803220901717,-0.3736735930261504,1.166687767160079,0.2168833322156662,0.3061087915512965,-0.04566359685260096,0.7464939936112768,0.3655353752072455,0.8786851076992829,0.1755661459480347,0.1134627169829898,0.8806509648204111,0.4929749470417902,-0.1823050543686978,0.04055307238316059,0.61447257996937,0.4435113470563484,-0.05412898079602597,0.06952699929364636,0.500140150678961,409.3772893772894,792.5641025641025,791.3553113553114,627.7655677655678,550.4029304029305,0.139099,-0.009949,1.012146,4.987030,-7.454376,-4.530945,1,1,1,1,1,30.000000
2024-10-15 11:47:54.554,0.2667652779183648,-0.3387166761639152,0.9765242276292643,0.3167410575459013,0.3730087535498279,0.07120970974027988,0.7684309615190562,0.2465494703314898,1.0281925377167,0.1836483277284823,0.5805083180658743,0.6366451451614793,0.6524986725268154,0.05730383034706828,0.08812818415666943,0.5465506649120514,0.5551821518250916,-0.00201081738692389,0.1975628334178743,0.6122056765031034,512.1245421245421,796.1904761904763,800.6227106227107,672.4908424908425,676.9230769230769,0.148315,-0.011169,1.011353,4.695435,-8.059998,-4.037476,1,1,1,1,1,30.000000
2024-10-15 11:47:54.854,,,,,,,,,,,,,,,,,,,,,,,,,,,,,,,,,,,,,,/muse/elements/jaw_clench
2024-10-15 11:47:55.173,,,,,,,,,,,,,,,,,,,,,,,,,,,,,,,,,,,,,,/muse/elements/jaw_clench
2024-10-15 11:47:55.342,,,,,,,,,,,,,,,,,,,,,,,,,,,,,,,,,,,,,,/muse/elements/jaw_clench
2024-10-15 11:47:55.555,0.3252427437438303,0.1165276028287162,1.140067676365663,0.3256571406945019,0.6180878886186875,-0.08083962257525887,0.8755199486880912,0.4207159975564403,1.081505448343435,0.2912690378488028,0.6119399561943832,0.7140418583276468,0.7558148066812045,0.03089275763790189,0.2709412219491312,0.6099795518167594,0.6015443600230002,-0.02546415409402151,0.1664397985214516,0.5925125099463087,407.3626373626374,796.1904761904763,790.5494505494506,621.7216117216118,541.941391941392,0.151184,-0.021790,1.011841,4.658051,-7.342224,-4.553375,1,1,1,1,1,30.000000
2024-10-15 11:47:55.661,,,,,,,,,,,,,,,,,,,,,,,,,,,,,,,,,,,,,,/muse/elements/jaw_clench
2024-10-15 11:47:56.554,0.6478007005048512,0.01648793916338454,1.096416790683174,0.6059099425360678,0.7243558694320777,-0.1572263161577309,0.5692088201501131,0.556856318011315,0.891617834556319,0.229791984862198,0.2601750383062179,0.7035234979385904,0.7155461420428881,-0.198067557812315,0.2350184091941283,0.6438845925021403,0.3963981188867418,-0.009268726346706394,0.1259703980689101,0.6635947102885047,562.4908424908425,795.3846153846154,807.0695970695971,697.8754578754579,753.0769230769231,0.141785,-0.002686,1.009583,7.648773,-4.747772,1.525269,1,1,1,1,1,30.000000
2024-10-15 11:47:57.554,0.6495762697348509,-0.2623104663560578,0.7273139646908856,0.7231750323045373,0.5260019144961974,-0.1494343664993943,0.1786303044954351,0.533025959550444,1.013135498845077,0.1929557393552646,0.412974938274403,0.8145676856736673,0.8925162254529317,-0.1762378008493818,0.02340211605064756,0.9236543569666018,0.3546756740602039,0.02763228386181573,0.1319147676725391,0.5293896531176656,471.0256410256411,794.1758241758242,793.3699633699634,661.6117216117216,752.6739926739926,0.152832,-0.011841,1.009399,4.082336,-7.873077,-5.323486,1,1,1,1,1,30.000000
2024-10-15 11:47:57.687,,,,,,,,,,,,,,,,,,,,,,,,,,,,,,,,,,,,,,/muse/elements/jaw_clench
2024-10-15 11:47:57.861,,,,,,,,,,,,,,,,,,,,,,,,,,,,,,,,,,,,,,/muse/elements/jaw_clench
2024-10-15 11:47:58.137,,,,,,,,,,,,,,,,,,,,,,,,,,,,,,,,,,,,,,/muse/elements/jaw_clench
2024-10-15 11:47:58.554,0.5837319642074267,-0.2314928954100443,0.4764099767996192,0.5015213820454517,0.4295055726643416,-0.0732129417437703,0.1447505864605818,0.3043417388943681,1.000684744150812,-0.006956121119598432,0.4173661455323273,0.8020839423670496,0.9027803242157226,0.0007118824094184929,-0.05495093944066032,0.7954798196642857,0.5421980572597956,0.03059944002022539,0.07993504460667519,0.5466068605486631,397.2893772893773,799.0109890109891,790.5494505494506,628.1684981684982,599.1575091575091,0.156067,0.014343,1.009521,3.588867,-7.170258,-7.402039,1,1,1,1,1,30.000000
2024-10-15 11:47:58.887,,,,,,,,,,,,,,,,,,,,,,,,,,,,,,,,,,,,,,/muse/elements/jaw_clench
2024-10-15 11:47:59.554,0.4653256911228043,0.04871880813178764,0.8114058550745897,0.003403071471376926,0.5661238255099178,0.1875031950919381,0.2383053983018306,-0.03114837508802073,0.9995442325814272,0.3510155519781575,0.2701456462317943,0.3658380247299884,0.9488058001035156,-0.08669778015751801,0.1418517692205697,0.5629420823421315,0.5996864394028751,-0.06509549488840094,0.07765961782966022,0.4340137346801005,506.4835164835165,788.5347985347986,785.3113553113553,690.6227106227107,771.6117216117216,0.165466,-0.000671,1.012634,5.031891,-7.110443,-5.121613,1,1,1,1,1,30.000000
2024-10-15 11:47:59.633,,,,,,,,,,,,,,,,,,,,,,,,,,,,,,,,,,,,,,/muse/elements/jaw_clench
2024-10-15 11:48:00.297,,,,,,,,,,,,,,,,,,,,,,,,,,,,,,,,,,,,,,/muse/elements/jaw_clench
2024-10-15 11:48:00.554,0.3272437032471398,-0.1523843989775085,0.8006681808364616,0.5211896277032075,0.4886974566280733,0.1231997538412705,0.5354174262498098,0.4422038316398365,0.8051075290033227,0.4530859221064427,0.2169842708175773,0.6944807501353835,0.9006663552340437,-0.001496699669547574,0.02279425410478692,0.6088985298836677,0.60514178414123,-0.1155622286241222,0.1142813401801087,0.4899885612849891,419.047619047619,787.3260073260074,774.0293040293041,640.2564102564103,606.007326007326,0.148132,-0.002136,1.011536,3.394470,-9.301147,-6.646881,1,1,1,1,1,30.000000
2024-10-15 11:48:00.637,,,,,,,,,,,,,,,,,,,,,,,,,,,,,,,,,,,,,,/muse/elements/jaw_clench
2024-10-15 11:48:01.447,,,,,,,,,,,,,,,,,,,,,,,,,,,,,,,,,,,,,,/muse/elements/blink
2024-10-15 11:48:01.554,0.3769814856772417,0.1652831005157457,0.6684339594386566,0.5317212084584062,0.5023303382602557,0.03556141607154068,0.4334120058258086,0.5533201221187124,0.7511990191816523,0.3701871062219825,0.287010653116629,0.7526793384944378,0.7383225284600382,-0.1054440011813809,0.03723426924130134,0.6296906556984291,0.5765011691759236,-0.06391424555519815,0.1164726131032565,0.6036083491888676,383.5897435897436,790.952380952381,789.3406593406594,603.992673992674,526.6300366300367,0.170776,-0.023560,1.005127,5.024414,-8.067474,-4.044952,1,1,1,1,1,30.000000
2024-10-15 11:48:01.854,,,,,,,,,,,,,,,,,,,,,,,,,,,,,,,,,,,,,,/muse/elements/blink
2024-10-15 11:48:02.554,0.3769814856772417,0.4022953658671209,0.5678736998255282,0.408176527350691,0.5023303382602557,0.1315694164466381,0.2544743881577587,0.4048167996597746,0.7511990191816523,0.3202451989798581,0.2601222147225674,0.5728063832039277,0.7383225284600382,-0.1258428198953787,0.1494893577413442,0.6104319653278281,0.5765011691759236,0.0025652283230336,0.2117077818004658,0.6601663997322401,423.4798534798535,788.1318681318681,791.3553113553114,620.1098901098901,678.1318681318681,0.175781,-0.023560,1.012939,4.837494,-6.923523,-4.874878,1,1,1,1,1,30.000000
2024-10-15 11:48:03.157,,,,,,,,,,,,,,,,,,,,,,,,,,,,,,,,,,,,,,/muse/elements/jaw_clench
2024-10-15 11:48:03.370,,,,,,,,,,,,,,,,,,,,,,,,,,,,,,,,,,,,,,/muse/elements/blink
2024-10-15 11:48:03.554,0.3769814856772417,0.5992043224379371,0.6273320329882124,0.408176527350691,0.5023303382602557,0.1766550973173837,0.2661937048793847,0.4048167996597746,0.7511990191816523,0.5063191382006614,0.09725450818793308,0.5728063832039277,0.7383225284600382,-0.02365255213173955,0.1573887937344013,0.6104319653278281,0.5765011691759236,0.00782988030964131,0.2035231349111568,0.6601663997322401,552.014652014652,803.4432234432235,790.1465201465202,686.996336996337,657.5824175824176,0.087219,-0.014709,1.017395,6.400146,-0.426178,-3.439331,1,1,1,1,1,30.000000
2024-10-15 11:48:03.604,,,,,,,,,,,,,,,,,,,,,,,,,,,,,,,,,,,,,,/muse/elements/blink
2024-10-15 11:48:03.965,,,,,,,,,,,,,,,,,,,,,,,,,,,,,,,,,,,,,,/muse/elements/blink
2024-10-15 11:48:04.554,0.3769814856772417,1.021424081191544,0.6625244299292001,0.408176527350691,0.5023303382602557,0.5628111764652003,0.3666814929938768,0.4048167996597746,0.7511990191816523,0.4510737177938119,-0.05163582614615338,0.5728063832039277,0.7383225284600382,0.1043851044846582,0.09083784729691007,0.6104319653278281,0.5765011691759236,0.08651715137949356,0.1326724006158571,0.6601663997322401,412.6007326007326,795.7875457875458,780.8791208791209,617.2893772893773,447.2527472527473,0.089417,0.010254,1.016113,3.828125,-7.858124,-4.426270,1,2,1,1,2,30.000000
2024-10-15 11:48:04.569,,,,,,,,,,,,,,,,,,,,,,,,,,,,,,,,,,,,,,/muse/elements/jaw_clench
2024-10-15 11:48:05.186,,,,,,,,,,,,,,,,,,,,,,,,,,,,,,,,,,,,,,/muse/elements/jaw_clench
2024-10-15 11:48:05.508,,,,,,,,,,,,,,,,,,,,,,,,,,,,,,,,,,,,,,/muse/elements/jaw_clench
2024-10-15 11:48:05.554,0.3769814856772417,0.4807469707042387,0.6625244299292001,0.408176527350691,0.5023303382602557,0.4603519192255124,0.3666814929938768,0.4048167996597746,0.7511990191816523,0.3415655810610178,-0.05163582614615338,0.5728063832039277,0.7383225284600382,-0.3207373377159683,0.09083784729691007,0.6104319653278281,0.5765011691759236,0.01791645571970689,0.1326724006158571,0.6601663997322401,468.2051282051282,786.1172161172161,765.5677655677656,654.3589743589744,746.6300366300367,0.103271,0.005005,1.014221,3.648682,-6.916046,-6.803894,1,2,1,1,2,30.000000
2024-10-15 11:48:05.702,,,,,,,,,,,,,,,,,,,,,,,,,,,,,,,,,,,,,,/muse/elements/jaw_clench
2024-10-15 11:48:06.115,,,,,,,,,,,,,,,,,,,,,,,,,,,,,,,,,,,,,,/muse/elements/jaw_clench
