TimeStamp,Delta_TP9,Delta_AF7,Delta_AF8,Delta_TP10,Theta_TP9,Theta_AF7,Theta_AF8,Theta_TP10,Alpha_TP9,Alpha_AF7,Alpha_AF8,Alpha_TP10,Beta_TP9,Beta_AF7,Beta_AF8,Beta_TP10,Gamma_TP9,Gamma_AF7,Gamma_AF8,Gamma_TP10,RAW_TP9,RAW_AF7,RAW_AF8,RAW_TP10,AUX_RIGHT,Accelerometer_X,Accelerometer_Y,Accelerometer_Z,Gyro_X,Gyro_Y,Gyro_Z,HeadBandOn,HSI_TP9,HSI_AF7,HSI_AF8,HSI_TP10,Battery,Elements
2024-10-22 14:23:32.571,,,,,,,,,,,,,,,,,,,,,,,,,,,,,,,,,,,,,,/muse/event/connected Muse-19E7
2024-10-22 14:23:33.572,1.035305106999699,0.2230269142040329,0.3917036886035511,0.8329317832495382,0.8443944714848868,0.3243018946138529,0.1782860261577595,0.7406190544979662,1.21141439393781,0.7508532391593502,0.3420504226422619,1.168644131124209,1.000101398179605,0.5946570495592467,0.6221028177374778,0.8280226604590439,1.026112437196212,0.6093405731977204,0.5352465008640832,0.7098266609670656,782.4908424908425,789.3406593406594,763.956043956044,785.3113553113553,703.919413919414,-0.289062,0.058838,0.973267,4.299164,-6.287994,-3.289795,1,1,1,1,1,35.000000
2024-10-22 14:23:33.932,,,,,,,,,,,,,,,,,,,,,,,,,,,,,,,,,,,,,,/muse/elements/blink
2024-10-22 14:23:34.571,0.8165209381849674,0.2983406707442247,0.5503099615150731,0.8865796141354539,0.8346572919587086,-0.08096166077623046,0.2721996758576476,0.8785366259737678,0.7161569583206189,0.1415434603930062,0.4605178853616152,1.023630973520489,0.8470009492644225,0.2940669210177421,0.7077334422493079,0.8083612435856871,0.9442411769353126,0.426324162343562,0.6484127085136764,0.6247681195043333,808.6813186813187,785.7142857142858,799.0109890109891,824.7985347985348,945.6776556776557,-0.286987,0.054871,0.977783,4.553375,-7.035675,-3.985138,1,1,1,1,1,35.000000
2024-10-22 14:23:35.571,-0.1280979734973177,0.333350165951019,0.5564343039351272,0.2926214858926873,0.01540561983993787,0.205416488308461,0.3674499612198444,0.2174686387401036,0.3241239888699894,0.3505298267472942,0.6564693332449734,0.6833142531828874,0.8904792643555607,0.4319650314072763,0.7800737489244047,0.7159963041868228,0.2965210994350715,0.3023808700263083,0.4361899869306233,0.4913566821869941,820.3663003663004,786.1172161172161,784.5054945054945,819.5604395604396,744.2124542124542,-0.289917,0.056213,0.970520,4.545898,-6.557159,-3.424377,1,1,1,1,1,35.000000
2024-10-22 14:23:35.974,,,,,,,,,,,,,,,,,,,,,,,,,,,,,,,,,,,,,,/muse/elements/blink
2024-10-22 14:23:36.572,0.05646587435074587,0.7047109125489514,0.4520826515354535,0.217861465615631,0.04546759784225455,0.5306589669379718,0.4547139398577839,0.247093934646075,0.345890675131964,0.4309181089369438,0.6158367528959284,0.7078950272604125,0.8250740106184972,0.4655068767168047,0.9211405781875498,0.6914147201587787,0.4027655319285744,0.2672764464035176,0.7068714306188763,0.5709046216132893,801.4285714285714,793.7728937728938,795.7875457875458,793.3699633699634,767.985347985348,-0.284790,0.055969,0.969971,4.418793,-6.362762,-3.536530,1,1,1,1,1,35.000000
2024-10-22 14:23:37.571,0.1622178096897234,0.7211372100335181,0.243399266854378,-0.03167574199242813,0.0694957521670741,0.5217117858962179,0.210588632179681,0.3193057919718125,0.006206339415938339,0.4765433629765165,0.4125114369006717,0.6316286467025676,0.7351446476281353,0.4871259668976097,0.6608684520650773,0.6948818271560642,0.4907994672386756,0.2395899021122757,0.74053298193815,0.6691419211100755,849.7802197802198,796.5934065934066,772.014652014652,857.4358974358975,536.3003663003664,-0.311584,0.041565,0.952820,12.837677,-14.108734,-56.405029,1,1,1,1,1,35.000000
2024-10-22 14:23:37.592,,,,,,,,,,,,,,,,,,,,,,,,,,,,,,,,,,,,,,/muse/elements/blink
2024-10-22 14:23:38.572,0.1622178096897234,0.2873411948079588,0.6355659619727286,-0.03167574199242813,0.0694957521670741,0.04628409523439973,0.4429035412736164,0.3193057919718125,0.006206339415938339,0.3913774730434635,0.7145537063860243,0.6316286467025676,0.7351446476281353,0.639938661872235,0.7616143096206773,0.6948818271560642,0.4907994672386756,0.2079214461280094,0.6060207154455847,0.6691419211100755,809.0842490842491,782.4908424908425,796.996336996337,805.0549450549451,689.4139194139194,-0.221497,0.020447,0.991333,7.521667,-6.759033,-1.218719,1,2,1,1,2,35.000000
2024-10-22 14:23:39.646,0.1622178096897234,0.2798898302211523,0.2330381109371288,0.7238900017116248,0.0694957521670741,0.1147403351553303,0.1546588443506365,0.3649816603440216,0.006206339415938339,0.2862998611071749,0.6759412276075221,0.6190781162726228,0.7351446476281353,0.6435483073925758,0.9745235268596935,0.7252484849434585,0.4907994672386756,0.6010933105987338,0.6958470500911741,0.6871050088913987,789.3406593406594,794.981684981685,794.981684981685,802.6373626373627,698.2783882783883,-0.206909,0.039795,0.988159,5.316010,-7.402039,-5.203857,1,1,1,1,1,35.000000
2024-10-22 14:23:40.629,0.8132813417740257,0.2548192602952419,0.1454526275246049,0.65240717857952,0.5937304017968206,0.1045530581855828,0.09678481267588999,0.6336747408266726,0.8594446978899724,0.3968519361796117,0.4918094575884354,0.8460498898909015,0.9608825322315231,0.5897427059870007,0.8372754359780837,0.5938435246209841,0.7303716057496462,0.5528357237493068,0.6985675228106323,0.4895524362675068,800.6227106227107,803.4432234432235,815.934065934066,812.3076923076924,724.4688644688645,-0.217102,0.064880,0.992004,4.725342,-5.450592,-4.665527,1,1,1,1,1,35.000000
2024-10-22 14:23:41.258,,,,,,,,,,,,,,,,,,,,,,,,,,,,,,,,,,,,,,/muse/elements/blink
2024-10-22 14:23:41.646,0.8752263022662831,-0.0123794777866391,-0.3202221722219197,0.6951852061713217,0.8691918057641869,-0.2203638433727583,0.0884322264181238,0.8835855750400665,0.8758343162671438,0.3190691263625243,0.3745515329048936,0.8456477625359239,0.9366811263417063,0.637619013966115,0.706533526958364,0.5852404780581485,0.7206557824300834,0.6645517465055029,0.8570909374649143,0.5086954844366204,875.9706959706959,793.7728937728938,777.2527472527473,784.1025641025641,694.6520146520147,-0.336792,0.089722,0.938965,-1.570129,-6.243134,23.260345,1,1,1,1,1,35.000000
2024-10-22 14:23:42.027,,,,,,,,,,,,,,,,,,,,,,,,,,,,,,,,,,,,,,/muse/elements/blink
2024-10-22 14:23:42.671,0.8856664468028745,0.7553382056350473,-0.06274545347937086,0.6815362818637979,0.9593198215773137,0.4453781412667933,0.2539506003874972,0.8839452933532078,0.854233484376176,0.6136997481769639,0.3668041290895541,0.7750033016415137,1.059071891730974,0.6385040259684323,0.7289795885309637,0.6074350395726409,0.8807217187789008,0.4734041407807565,0.9289702821698868,0.5940646370992708,546.7765567765568,793.7728937728938,815.934065934066,536.7032967032967,743.0036630036631,0.156128,-0.037842,0.795532,5.869293,-4.710388,-22.041626,1,1,1,1,1,35.000000
2024-10-22 14:23:42.921,,,,,,,,,,,,,,,,,,,,,,,,,,,,,,,,,,,,,,/muse/elements/blink
2024-10-22 14:23:43.409,,,,,,,,,,,,,,,,,,,,,,,,,,,,,,,,,,,,,,/muse/elements/blink
2024-10-22 14:23:43.583,0.8856664468028745,0.9340677091358686,0.9605550829108895,0.6815362818637979,0.9593198215773137,0.5307181766462669,0.8178650670179775,0.8839452933532078,0.854233484376176,0.6771251172893605,0.828388120754551,0.7750033016415137,1.059071891730974,0.5779855903089414,0.7339540312107998,0.6074350395726409,0.8807217187789008,0.3756949948575423,0.7351735688862355,0.5940646370992708,782.0879120879121,786.9230769230769,792.967032967033,625.3479853479854,795.3846153846154,-0.402344,0.124695,0.916260,7.402039,15.768585,-1.749573,1,1,1,1,1,35.000000
2024-10-22 14:23:44.114,,,,,,,,,,,,,,,,,,,,,,,,,,,,,,,,,,,,,,/muse/elements/blink
2024-10-22 14:23:44.572,0.8856664468028745,1.122025516462352,0.6738308172953082,0.6815362818637979,0.9593198215773137,0.52321196901337,-0.07146953439920004,0.8839452933532078,0.854233484376176,0.6139491353222762,0.3920217254926415,0.7750033016415137,1.059071891730974,0.5734649844719651,0.4846430829150947,0.6074350395726409,0.8807217187789008,0.3087832678871762,0.4984190585358352,0.5940646370992708,808.2783882783883,786.5201465201466,773.2234432234433,794.1758241758242,727.2893772893773,-0.331543,0.063171,0.942932,0.986938,-19.088287,-7.387085,1,2,1,1,2,35.000000
2024-10-22 14:23:45.582,0.8856664468028745,0.5756335706226966,0.4044282089891071,0.6815362818637979,0.9593198215773137,-0.2838819022085339,0.04047011064310908,0.8839452933532078,0.854233484376176,0.4327184534004333,0.534290861134428,0.7750033016415137,1.059071891730974,0.2314181776836745,0.4547688661524776,0.6074350395726409,0.8807217187789008,-0.07247899647795659,0.4777130268550496,0.5940646370992708,791.3553113553114,793.3699633699634,784.1025641025641,826.8131868131868,880,-0.311401,0.055847,0.969971,5.293579,-7.342224,-5.330963,1,2,1,1,2,35.000000
2024-10-22 14:23:46.579,0.8856664468028745,0.1734345686348018,-0.1564223738310919,0.6815362818637979,0.9593198215773137,-0.2428948177922946,0.004397190890964198,0.8839452933532078,0.854233484376176,0.440445180279897,0.4389700094491737,0.7750033016415137,1.059071891730974,0.154555251025358,0.5295532400329455,0.6074350395726409,0.8807217187789008,0.01311362979500491,0.5206562682785665,0.5940646370992708,781.2820512820513,803.8461538461539,783.6996336996338,792.5641025641025,678.1318681318681,-0.293884,0.040344,0.973450,5.473022,-6.063690,-3.686066,1,2,1,1,2,35.000000
2024-10-22 14:23:47.580,0.9004266598035535,0.1605037341160434,0.06350718947150982,0.8225298583107556,0.8304056939400184,-0.1447203878509256,-0.02242019787966248,0.8253861281678544,1.27872822907779,0.2688084594617877,0.3831447054251885,1.241667377347596,0.8880202273349443,0.2596319496205872,0.6018741987693036,1.057195454309604,0.6622868910759744,0.2196142324909142,0.6013556515462861,0.8928509616349829,782.893772893773,782.0879120879121,806.6666666666667,796.5934065934066,639.047619047619,-0.269958,0.046448,0.973999,5.368347,-7.506714,-3.633728,1,1,1,1,1,35.000000
2024-10-22 14:23:48.571,0.7557666609121898,-0.05481221912342035,0.05208049655327941,0.5048386994912731,0.6669460986484506,-0.0251938345715285,-0.06664843327392796,0.6280152638373402,1.142541527777986,0.4717890993302236,0.2570155454651632,1.277995172998803,0.8281395367330815,0.3176725992444728,0.5217075499785497,0.8838311038230386,0.5205402283778185,0.3086866427038928,0.5874668199261259,0.6924712969823111,809.0842490842491,793.3699633699634,782.4908424908425,789.7435897435897,760.7326007326008,-0.266479,0.044312,0.975952,4.149628,-6.766510,-2.661743,1,1,1,1,1,35.000000
2024-10-22 14:23:49.572,0.7732097609670198,-0.06783892556490193,-0.1960378904010814,0.4046229146694646,0.4628698436850153,0.01023777856850555,-0.1342703901577404,0.3962176878322289,1.086559367402657,0.5120789105640894,0.25957784746407,1.093014582654211,0.7825216090749119,0.4620031867357589,0.4068957580542056,0.8212140012795149,0.5023449295032654,0.2567016260880549,0.4513211953912178,0.3908422353678299,792.967032967033,796.1904761904763,805.0549450549451,815.1282051282052,805.4578754578755,-0.257874,0.046265,0.981018,4.605713,-6.482391,-3.730927,1,1,1,1,1,35.000000
2024-10-22 14:23:50.580,0.4258478418296593,-0.4243326839857992,-0.3335485245348137,0.1584606417614207,0.1932388675619285,-0.400616444137906,-0.0008142424996643476,0.2227550667986175,0.9173562770872633,0.2258335177137072,0.4245794650232515,0.7743681904861959,0.7116171030225464,0.4661077846015726,0.607497607915491,0.6609458528819032,0.5615771268199528,0.1651698372568968,0.514939983116276,0.3599220752069174,788.5347985347986,795.3846153846154,788.5347985347986,807.0695970695971,789.3406593406594,-0.258850,0.047791,0.976868,4.239349,-6.355286,-3.177643,1,1,1,1,1,35.000000
2024-10-22 14:23:51.572,0.7790500469572413,-0.306626345120391,-0.8742616379660187,-0.008686540404563535,0.3972612542036644,-0.2930893518311252,-0.2156138450179689,0.2138156433121049,0.8225471542652673,0.2164755921133211,0.4303318079473569,0.6811309638798831,0.6148098211879515,0.3696506695283006,0.6703539175551376,0.6726165282884965,0.4839390557319035,0.2790994719589352,0.5419331233929076,0.6218270343246318,791.3553113553114,780.8791208791209,776.8498168498169,776.8498168498169,782.893772893773,-0.253479,0.027161,0.980835,4.276733,-7.491760,-4.172058,1,1,1,1,1,35.000000
2024-10-22 14:23:52.575,0.5821381319297556,-0.2092137319347443,-0.5153378891711281,0.07266274094345467,0.3287630269362585,-0.04588425570998467,-0.6275467290625422,0.1647476441852581,0.8892898768339771,0.3898792163733187,0.2259287057980205,0.7229586873747379,0.7655049784887474,0.4257108280510843,0.6695339772896886,0.7844050416923188,0.479973585290575,0.3586098527883342,0.5566319955267169,0.6453225882501166,786.1172161172161,770.4029304029305,794.1758241758242,784.1025641025641,823.1868131868132,-0.239990,0.040527,0.981995,4.740295,-6.684265,-4.261780,1,1,1,1,1,35.000000
2024-10-22 14:23:53.572,0.3330654086888933,-0.1311389421743114,-0.1720398559447101,0.1595939000188059,0.2741856161712017,-0.1121987767912148,-0.2929591972775927,0.2905759365837049,0.9791329381708533,0.5406071473199482,0.6624546619750875,0.7973617990661859,0.7262878567962997,0.3929592538850403,0.4469615381119109,0.6804614490572201,0.5977865940591318,0.3608861245612964,0.643904927575058,0.6135356834230382,793.3699633699634,782.893772893773,789.7435897435897,797.3992673992674,877.1794871794872,-0.239319,0.048401,0.984070,4.710388,-6.482391,-3.820648,1,1,1,1,1,35.000000
2024-10-22 14:23:54.575,0.1516143717370578,-0.00460423783213067,-0.3834904207315345,0.07049583020958802,0.332039598283327,0.01053521101418516,-0.2707694911014845,0.2469401900182466,1.186392303456572,0.584456987280526,0.6585406348011522,0.9089759921181417,0.7501864685431823,0.369968594118447,0.5165015976499097,0.6372076708795528,0.5620420220284603,0.4363567319250299,0.7749033629383978,0.5532111595556602,811.0989010989011,777.2527472527473,797.8021978021978,798.6080586080586,669.2673992673992,-0.237061,0.047485,0.991272,4.590759,-6.392670,-2.796326,1,1,1,1,1,35.000000
2024-10-22 14:23:55.578,0.1545477226389098,-0.119450566449997,-0.3033823685979591,0.0836852221554565,0.5257402623464107,0.04219280415839565,-0.2033811848868713,0.3958871632192233,1.435073259881964,0.4677439673304642,0.2311800526221355,1.133314043470927,0.8336898667409963,0.5082713106649998,0.5541196647891036,0.7143648650369216,0.4380940328755584,0.4555358285118393,0.6404286046610973,0.537227855167533,784.9084249084249,793.3699633699634,790.1465201465202,780.4761904761905,720.0366300366301,-0.236816,0.045471,0.989746,4.396362,-6.931000,-4.000092,1,1,1,1,1,35.000000
2024-10-22 14:23:56.572,0.1754299172036798,-0.2460873294222973,-0.4152536613998735,0.1712975221440367,0.5333116708698208,-0.09718340132321217,-0.3109791095504882,0.4129605374899643,1.33975054197399,0.4024038597315305,0.26197723801468,1.157051216282368,0.7060110116341524,0.4680522989905271,0.5646483244971554,0.6909793702708168,0.3576826482838945,0.1953777732631435,0.4775748092223688,0.5158785436495248,806.6666666666667,789.3406593406594,791.7582417582418,805.8608058608058,645.4945054945055,-0.227295,0.045410,0.988098,4.837494,-6.953430,-3.484192,1,1,1,1,1,35.000000
2024-10-22 14:23:57.574,-0.04071390122133369,-0.337087505089625,-0.75068204578584,-0.1117815468083624,0.03154252723301478,-0.4607022353215428,-0.3067109019752692,0.1726351208627414,1.266760012207889,0.3154586411054047,0.2777777314493142,1.084343341598554,0.6008346087878591,0.2518138756863375,0.4458322621557694,0.5682170397518361,0.3730626090540161,0.1661776972936236,0.3111747066520135,0.2460311490225243,801.4285714285714,788.5347985347986,805.0549450549451,800.6227106227107,875.9706959706959,-0.227905,0.045593,0.989014,4.777679,-5.973969,-3.551483,1,1,1,1,1,35.000000
2024-10-22 14:23:58.574,-0.1340911259521486,-0.03095851010627933,-0.4310947429120336,-0.1824847346937001,-0.05792329789061793,-0.1037478927050337,-0.1820306945595241,-0.05567624150706279,1.214688321200758,0.09396884226625495,0.3189235626836662,1.022618738603115,0.6398726292536953,0.07869420381949044,0.5161260454135406,0.4999702656461893,0.1962738344830231,0.2326279880775408,0.3133312548044784,0.16227115652492,790.5494505494506,772.4175824175825,790.952380952381,808.2783882783883,839.7069597069598,-0.232239,0.046509,0.983948,4.732819,-6.497345,-3.581390,1,1,1,1,1,35.000000
2024-10-22 14:23:59.582,0.11942862913671,-0.1349918206237457,-0.1556797699184284,-0.147766936725095,0.1427297406895557,-0.07811961630624313,-0.2199421712783511,0.0174437796465418,0.8791633292280683,0.1415743952326023,-0.02864823107522834,0.8591663419300285,0.6106200293274051,0.009667112839299399,0.4717844975928795,0.4665303337096824,0.240655702692208,0.2566271630445514,0.2643195738091058,0.2595609718274,788.1318681318681,785.3113553113553,784.9084249084249,798.6080586080586,788.5347985347986,-0.230225,0.051636,0.985535,4.381409,-7.267456,-3.573914,1,1,1,1,1,35.000000
2024-10-22 14:24:00.572,-0.022188940968804,-0.4298551917663652,-0.3349383862409545,-0.3482871096402416,0.111259400128617,-0.484687183452551,-0.2281429668540976,0.06047768856798847,0.6412312192093726,0.1515600294006285,0.1104925557255325,0.6211185246034362,0.7232418058231634,0.3633980534828973,0.5055979602127305,0.5311014521756101,0.2030475823043183,0.2273673822551957,0.3903769508203883,0.2127591944940166,786.9230769230769,778.8644688644689,796.1904761904763,798.6080586080586,806.2637362637363,-0.226196,0.051575,0.985657,4.575806,-6.519775,-3.723450,1,1,1,1,1,35.000000
2024-10-22 14:24:01.571,0.1286068399792156,-0.2373877119002731,-0.4206022912427929,-0.2061558484224202,0.3178004033218889,-0.475058639220896,-0.1276501936949832,0.1984989188410712,0.911642436937762,0.2017647415830564,0.1534814046511886,0.9696605379044687,0.7322590677346277,0.4035227383806305,0.4559876611186564,0.5987079193348566,0.2047340365829641,0.2287327005985095,0.5314644585938553,0.1371274823730619,810.2930402930403,798.6080586080586,809.4871794871796,803.040293040293,751.0622710622711,-0.227051,0.054199,0.984680,4.486084,-6.759033,-3.715973,1,1,1,1,1,35.000000
2024-10-22 14:24:02.575,0.09450129247183245,-0.3030745660331254,-0.1968274630315534,-0.1400400641170015,0.3099608470519605,-0.4199108730138257,-0.01164714088717474,0.1448506064343428,0.9955874913725898,0.2085863264423712,0.2116599030826365,0.9086504618754296,0.8076494451326089,0.4964706639144268,0.5023400549272676,0.690083769656038,0.3067569016063642,0.2215400231269289,0.5805199067843698,0.2413669660010372,805.4578754578755,795.3846153846154,790.952380952381,798.2051282051282,834.4688644688645,-0.227051,0.050232,0.985779,4.246826,-5.458069,-3.192596,1,1,1,1,1,35.000000
2024-10-22 14:24:03.576,0.1328719734169323,-0.1667698015068146,-0.08520705713037438,0.004428722808148231,-0.05278368046515509,-0.2723668930590384,0.1064035422655419,0.3655780358992678,0.790762158634195,0.1621473526769637,0.4826048068673373,0.5327798919456973,0.682998792740116,0.4462855576117348,0.6432552297995396,0.6396340491396295,0.4195996986779539,0.2121385481046887,0.6200176049445891,0.3461552631857591,800.2197802197802,793.7728937728938,806.6666666666667,799.0109890109891,854.2124542124542,-0.226807,0.049072,0.987854,4.605713,-6.908569,-4.000092,1,1,1,1,1,35.000000
2024-10-22 14:24:04.574,-0.2022340666632217,-0.2795619614454661,-0.360877328504276,0.09549186611989124,0.42787825573426,0.07490829560943854,-0.17467571871313,0.3967238162475974,1.109247793836473,0.5145043879598284,0.5513534346284428,0.6913546782694956,0.6554634528074691,0.3387043989704597,0.6348178300578053,0.6592799607701763,0.4707213125215873,0.2422021058964324,0.6115779220852953,0.4141308722916652,796.996336996337,790.1465201465202,802.2344322344322,792.967032967033,766.7765567765568,-0.223511,0.050049,0.988342,4.650574,-6.437531,-3.962708,1,1,1,1,1,35.000000
2024-10-22 14:24:05.572,-0.3967041403175456,-0.5575467285330561,-0.2375086648920444,0.04777748898709654,0.5135181866585378,-0.01196540143500236,-0.09036364316413041,0.2654258593276497,1.255119624998705,0.5531892986793649,0.5155957228994317,1.058672635067403,0.5788488569914665,0.3116291802720064,0.6532348242828184,0.7124494769178644,0.4365272518660955,0.299555295761209,0.3834406898483291,0.3501178492586554,806.2637362637363,784.1025641025641,794.981684981685,804.6520146520147,651.5384615384615,-0.223999,0.050293,0.989319,4.583282,-7.117920,-3.506622,1,1,1,1,1,35.000000
2024-10-22 14:24:06.572,-0.1056920282334917,-0.3712332162340063,-0.3077012377847851,0.1160097930508154,0.5934984177918695,-0.1946045285876775,-0.0423717545516721,0.5011529415893942,1.312303823722577,0.501575196324711,0.5044009961977253,1.202791088268618,0.6062949915705205,0.2683582242054049,0.6270083712978799,0.7179570968426592,0.3853979280392427,0.2101968407149472,0.5045240298868734,0.4216216691183828,793.7728937728938,792.967032967033,793.3699633699634,811.0989010989011,816.7399267399268,-0.219482,0.050781,0.987305,4.553375,-6.145935,-3.491669,1,1,1,1,1,35.000000
2024-10-22 14:24:07.571,-0.154802593944989,-0.4200783754519728,-0.1896334092831702,0.02924706137476047,0.7377692812070767,-0.1679544307581606,-0.1616798021129103,0.5001932253071739,1.346760795965507,0.454660269105979,0.4848875422167936,1.109547719507506,0.770630832440628,0.1308575736049994,0.4643828961446873,0.6339856301219067,0.1829535333485029,0.19651706186735,0.5808571003447678,0.253694022388852,794.5787545787546,784.5054945054945,794.5787545787546,805.8608058608058,847.3626373626374,-0.220886,0.054077,0.993774,4.568329,-6.086121,-3.469238,1,1,1,1,1,35.000000
2024-10-22 14:24:08.571,-0.0629332141371943,-0.3708846035520111,-0.2524499784221908,0.2748109040149287,0.8110334896478324,-0.3373989085324257,-0.2034202045794294,0.6365514851891221,1.345242202552607,0.03062515783646253,0.2685216498419095,1.011917706501492,0.633432984581461,0.1428881752836772,0.3608729357534334,0.5680079921630176,0.03942545564191033,0.06985559517781184,0.3679246403137914,0.1814462352139136,804.2490842490843,795.7875457875458,788.9377289377289,792.5641025641025,637.4358974358975,-0.225342,0.055725,0.988403,4.987030,-5.443115,-3.715973,1,1,1,1,1,35.000000
2024-10-22 14:24:09.572,-0.08812677028434553,-0.2290147152917343,-0.519064334240116,0.1648871191146865,0.508465594686468,-0.358019684097562,-0.2195811801339291,0.390680947129583,1.125265933786887,0.1284632990112007,0.1597529911344191,0.6148269038500314,0.5140865198833262,0.3761137755709836,0.3066239213009408,0.4415086061112252,0.2160663500902634,0.2682328063255964,0.2139558671076077,0.2425616325620752,808.2783882783883,796.1904761904763,804.2490842490843,803.040293040293,797.3992673992674,-0.225769,0.052856,0.984009,4.471130,-6.594543,-3.686066,1,1,1,1,1,35.000000
2024-10-22 14:24:10.586,-0.2089626511728469,-0.5237715455451269,-0.1978601726563971,-0.00183516028047721,0.3561681107276583,-0.4047455866081451,-0.3840560961633167,0.3511232829141901,1.114623748354749,0.257207749784185,0.2196404254425182,0.5565303737255558,0.4569746208668723,0.4876424517299536,0.3998289318244455,0.4330391897558888,0.3163584558909822,0.1801067478451696,0.3521730344711908,0.2405660993108149,802.6373626373627,788.5347985347986,797.3992673992674,819.96336996337,890.0732600732601,-0.221985,0.052612,0.990112,5.009460,-5.884247,-2.983246,1,1,1,1,1,35.000000
2024-10-22 14:24:11.581,0.003855939478730933,-0.5416582917352203,-0.1980962799559372,0.1844323841854279,0.2260798917887764,-0.4421998537967963,0.09077138501367725,0.4223470132966793,0.6854772452451218,0.08096919699089337,0.2835462447383872,0.6166570833078193,0.5459750981999024,0.295491704159084,0.6306512065777901,0.4631286965854495,0.3362178724870232,0.09885810700066686,0.4472891168591762,0.286543330591751,803.8461538461539,795.3846153846154,803.8461538461539,812.3076923076924,774.8351648351648,-0.222473,0.055298,0.987976,4.538422,-6.437531,-3.558960,1,1,1,1,1,35.000000
2024-10-22 14:24:12.571,-0.01076884170955109,-0.74344140862346,-0.3750990509289194,0.02733384218918599,0.09265614099388843,-0.183505614852774,0.04743580607308091,0.2812843246489079,0.7301229182493379,0.1463014702112873,0.2567934368901218,0.5874964529919979,0.3476198328384187,0.1608482514894181,0.6141601921157238,0.4158115377739632,0.255911580229304,-0.003390992524792085,0.4480861959227254,0.3600532209362174,806.6666666666667,796.5934065934066,794.981684981685,803.040293040293,859.8534798534798,-0.225037,0.053284,0.988342,4.456177,-6.751556,-3.633728,1,1,1,1,1,35.000000
2024-10-22 14:24:13.574,-0.1205797488056299,-0.1792151809493428,-0.3396273471552909,-0.1225578180319546,0.2634611893545541,-0.08726332185368672,-0.3272969204363964,0.0829373028050598,0.7498665835375805,0.3914251839096635,0.2708777463322439,0.5459431170799792,0.4417079658423375,0.2781493244574684,0.468870451310324,0.3132396470276345,0.1799919490267653,0.0006924192473087565,0.3917560429118787,0.09728836052866603,822.7838827838829,798.6080586080586,792.5641025641025,813.1135531135532,725.2747252747253,-0.229492,0.058105,0.988647,4.478607,-6.355286,-3.633728,1,1,1,1,1,35.000000
2024-10-22 14:24:14.571,0.7257337827623643,0.7038107003548363,0.377663062171527,0.7101080544205703,0.3860501474290238,-0.0604238552672582,-0.4591596424836706,0.3127974890560371,0.9972348717358036,0.436412729394587,0.2049762856767341,0.9834284978034407,0.6160925588395708,0.3550393907943881,0.534581174407664,0.5242503191809091,0.3191243381025856,0.2007011286778479,0.4201959896105705,0.3623011200702514,797.3992673992674,795.7875457875458,799.4139194139194,801.4285714285714,773.6263736263736,-0.227600,0.054626,0.988037,4.321594,-6.273041,-3.499146,1,1,1,1,1,35.000000
2024-10-22 14:24:15.571,-0.1442929622206042,-0.2884553051231813,-0.3772073987773541,0.3899822487074501,0.2526150984061048,-0.4607760766883561,-0.1769553360779885,0.3476691202185764,0.9408649553157445,-0.1397756116760384,-0.0281702823999689,0.8820371830128464,0.5751149810157475,0.2716784070621941,0.5193926109973737,0.5089685333214018,0.2671914458703708,-0.03614549653958223,0.3020994475151222,0.1649239259688,786.9230769230769,795.3846153846154,789.7435897435897,790.1465201465202,711.1721611721612,-0.228088,0.051270,0.985291,4.351501,-6.639404,-3.947754,1,1,1,1,1,35.000000
2024-10-22 14:24:16.571,0.2156466515893989,-0.3619408683542367,-0.5098105823829976,0.09157812028427405,0.2383543068405424,-0.3809730066279745,-0.3260610399659569,0.3345642005548126,0.9790639803715152,0.06501755283942291,0.1268455989889158,0.7744351576044874,0.7000022837968369,0.325333090901703,0.4859442447409199,0.553548012460378,0.3090090240600492,0.08538877060289317,0.48425285861592,0.1584803948558481,800.2197802197802,791.7582417582418,804.2490842490843,799.0109890109891,825.2014652014652,-0.231812,0.050232,0.987793,4.613190,-5.719757,-3.843079,1,1,1,1,1,35.000000
2024-10-22 14:24:17.578,0.2900496190041306,-0.464999397592926,-0.1879036304379652,0.1246987565401725,0.2590840437193852,-0.3305672021478097,-0.288620435359896,0.0006983549873157357,0.8244668499714062,0.1793783045619567,0.2870811555856269,0.5419013975658933,0.6564244658674147,0.2953030942900007,0.4377723072499921,0.5171976572492456,0.3059387346279697,0.06297520989030447,0.3977064889097069,0.3091008432512058,796.5934065934066,792.967032967033,791.3553113553114,797.3992673992674,701.5018315018315,-0.230957,0.051819,0.982910,4.575806,-6.415100,-3.117828,1,1,1,1,1,35.000000
2024-10-22 14:24:18.577,0.05177079304207464,-0.560255970899179,-0.2086917611804665,0.1559874703643541,0.2427464969787893,-0.4418436034997138,0.05374515667671229,0.003016909632940656,0.8755885698318419,0.0439181629466034,0.2828681357794818,0.7698796704761022,0.5388908889382452,0.1403220746071234,0.2517880663895259,0.4298635557209206,0.01220700038918038,-0.0574125926257014,0.05224504867698725,0.1177463533756351,796.5934065934066,791.3553113553114,788.9377289377289,802.6373626373627,785.3113553113553,-0.229187,0.051697,0.985901,4.628143,-6.430054,-3.431854,1,1,1,1,1,35.000000
2024-10-22 14:24:19.575,0.5625235189827692,0.616602295097574,0.4179338476391001,0.4561674713582386,0.4661833585078147,-0.1661802192094614,0.07128967253102063,0.1907416011702441,0.7312507154608824,0.247145075925656,0.1544211918785395,0.7789621874497451,0.565050493161134,-0.03992897528601083,-0.02756607808420047,0.4030509590357098,-0.002812812934980137,-0.1486990128545318,-0.2543316483181778,-0.1079130034756398,794.981684981685,794.1758241758242,794.5787545787546,796.5934065934066,752.2710622710623,-0.227966,0.053711,0.987061,4.613190,-6.145935,-3.895416,1,1,1,1,1,35.000000
2024-10-22 14:24:20.582,0.870660614109269,0.8271029262882621,0.7790066252089689,0.6229828604080396,0.6678854509781597,-0.1496404773382903,0.06786955193558335,0.400234853161837,0.8189191325131091,0.3188802341227737,0.3374384015780211,0.8105743552082537,0.6471808958146945,0.02829168633674114,0.1859346736100683,0.603318171390857,0.2383523889356408,-0.06531414060542348,-0.08415590357698369,0.3418022825916697,787.3260073260074,784.5054945054945,802.2344322344322,782.0879120879121,894.1025641025641,-0.228699,0.053894,0.986755,4.209442,-6.228180,-3.663635,1,1,1,1,1,35.000000
2024-10-22 14:24:21.571,0.3177722899014431,-0.3199989045000002,-0.1414496263000382,0.3053792397621983,0.4132322903560241,-0.2185719615662845,-0.03745539523111244,0.2033043330521293,0.936960343143815,0.1650656736003854,0.4478848111854494,0.8729559642344376,0.6798951386618225,0.1996039402291009,0.307223148958949,0.5735401210890222,0.4095822755331575,-0.0809834847206737,0.2248190176209221,0.435246407099972,807.8754578754579,795.3846153846154,788.1318681318681,803.8461538461539,666.0439560439561,-0.226257,0.055969,0.991028,4.426270,-6.714172,-3.932800,1,1,1,1,1,35.000000
2024-10-22 14:24:22.571,0.3842572806567079,-0.7657293215384742,-0.1978777514729938,0.2979058701592192,0.414700257707162,-0.4496286919296178,-0.1681396132407318,0.197884596124953,0.8441966444903271,0.1081962392571623,0.3810324784004874,0.7920409966333052,0.4842431038506073,0.1402757745191849,0.2189620312833994,0.3767509035872478,0.1345944263585442,-0.1495242057154606,0.1570577681882337,0.1248445201005378,796.996336996337,794.5787545787546,801.4285714285714,809.4871794871796,690.6227106227107,-0.228455,0.051453,0.987305,4.456177,-6.646881,-3.581390,1,1,1,1,1,35.000000
2024-10-22 14:24:23.572,0.01933772495267456,-0.7507023556190398,-0.1747923733752672,0.1705845468518326,0.4585710680217031,-0.4550087752879376,-0.1745416879654771,0.4008482217916519,0.7598940567461639,0.1395082647014207,0.1858980085039184,0.7765432753045968,0.4936470367350046,0.1639798464615996,0.1244972934617799,0.4122243594306246,0.1082729070921499,-0.1071653494513967,0.1485676463317986,0.05750976795592878,794.1758241758242,797.3992673992674,800.2197802197802,799.0109890109891,769.1941391941392,-0.230286,0.050537,0.987732,4.456177,-6.676788,-3.611298,1,1,1,1,1,35.000000
2024-10-22 14:24:24.581,0.1371671567851131,-0.1743749580196721,-0.5745131895094745,0.1371814586489922,0.08352670451330957,-0.3667103304721023,-0.2414663723825962,0.1146498230674249,0.6047235453443316,0.3287748347295157,0.2426692481106374,0.476679194846945,0.4530859209209157,0.07090234351568275,0.3300505178808411,0.408597085446525,0.1898899434282074,-0.04945154555595232,0.2012933544608041,0.1458844032745901,814.3223443223443,801.4285714285714,799.0109890109891,822.7838827838829,780.4761904761905,-0.230713,0.048706,0.986816,4.366455,-6.407623,-3.364563,1,1,1,1,1,35.000000
2024-10-22 14:24:25.571,0.3215281833607805,0.1650572638412448,-0.1172062481014512,0.2926662137948967,0.3562313398626386,-0.2085719889628223,-0.03783351913866985,0.2680617669776922,0.8192757141468467,0.4111574849146307,0.3968317488386008,0.6985086810744026,0.5576712450471559,0.189447638055275,0.587344040700309,0.375580119693098,0.2882958580517938,-0.0118670459518774,0.2832195799480239,0.2729544879152911,794.5787545787546,791.7582417582418,802.2344322344322,802.2344322344322,798.6080586080586,-0.230408,0.051758,0.985168,4.456177,-6.205750,-3.596344,1,1,1,1,1,35.000000
2024-10-22 14:24:26.571,0.1544593811198569,0.1749109296132047,0.1053114315033581,0.06252547392425664,0.3841600138615083,-0.16875542145037,0.07259915081514361,0.3696913880169467,0.665183808529848,0.3175942952946372,0.446937352810099,0.833338116892225,0.4817188257557915,0.2101597278302777,0.4705666625722419,0.4325596639866385,0.126709718505548,-0.09432845080597234,0.1788604191716556,0.08654181918030493,805.0549450549451,800.2197802197802,799.4139194139194,805.0549450549451,870.7326007326008,-0.234802,0.049561,0.984436,4.762726,-6.430054,-3.753357,1,1,1,1,1,35.000000
2024-10-22 14:24:27.572,0.2764683905934162,0.3935073362742121,0.1691755034323497,-0.2236518570793449,0.5523207889616042,0.1464595429183636,0.1197798498189049,0.4713031443468569,0.8493695979103828,0.3087431371392262,0.4379003755100951,0.9759510931513495,0.4952651791938087,0.1153518719823958,0.6663068056520576,0.5771214417841013,0.144848944512541,0.02295016805660642,0.3795472026813332,0.01749527817315735,800.6227106227107,796.5934065934066,800.6227106227107,806.2637362637363,728.0952380952381,-0.226929,0.048218,0.988159,4.336548,-6.856232,-4.059906,1,1,1,1,1,35.000000
2024-10-22 14:24:28.572,0.2659438158964151,-0.006471139500953484,-0.5056223225599928,-0.03758780937986411,0.2979454361929662,-0.09638599044228437,-0.3689019493753397,0.1487203548208767,0.7346581556064735,0.108607264874911,0.3320715945618002,0.7699735952680639,0.4302298290546346,0.05931116341056188,0.3868252566520157,0.4855370471850958,0.05557188466536838,-0.01247051094084025,0.1763719922204507,0.08247039231466775,804.2490842490843,798.6080586080586,794.5787545787546,802.6373626373627,730.1098901098901,-0.230103,0.051575,0.985107,4.695435,-6.325378,-3.887939,1,1,1,1,1,35.000000
2024-10-22 14:24:29.571,0.2334258148111215,-0.240311769519236,-0.4340197156521493,0.1570860840890196,0.02276845378523691,-0.2269471867882885,-0.1315320508850207,0.2069472928345886,0.755088224479318,0.1667950067554399,0.3835552283973571,0.8381520396442539,0.3630205381830686,-0.03712796503330455,0.2284486702740997,0.4893682377157073,0.1560016450687883,-0.1468158905443404,0.1492988635964993,0.07149363909605345,800.6227106227107,802.2344322344322,799.4139194139194,805.4578754578755,669.2673992673992,-0.231140,0.051208,0.981567,4.418793,-6.310425,-3.790741,1,1,1,1,1,35.000000
2024-10-22 14:24:30.570,-0.02379883514830612,-0.5372971439376178,-0.2605681953634295,-0.02038111914468622,0.01181694003643667,-0.2995584408354771,-0.209135385863713,0.2137136593441229,0.8650808532458192,0.09806927565560475,0.05804486030398767,0.7788599647102181,0.3890681128756119,0.05705251314000668,0.2400161220782738,0.3005024514244551,0.2712174629745606,-0.003323630179904495,0.2536669506674046,9.976441664483412e-06,801.8315018315019,794.1758241758242,788.5347985347986,803.8461538461539,789.3406593406594,-0.230042,0.051453,0.987305,4.590759,-6.856232,-3.499146,1,1,1,1,1,35.000000
2024-10-22 14:24:31.571,-0.0007320588718792215,-0.9279351844336891,-0.4878800210173696,-0.1821017979770524,0.02403484476373976,-0.6039499204424106,-0.3390165322670988,-0.2277284750757345,0.4713416696833015,0.03447477206544639,0.275094204657596,0.4624147390304534,0.6093051800379325,0.1393491981894202,0.3242153586853836,0.3370130623089966,0.1528882003181939,-0.01393572584425401,0.2784107242330603,0.1705728007788909,799.8168498168499,784.5054945054945,787.3260073260074,794.981684981685,553.6263736263736,-0.233215,0.053711,0.989258,4.927216,-6.497345,-3.364563,1,1,1,1,1,35.000000
2024-10-22 14:24:32.572,0.08823885869363562,-0.5463160462251838,-0.1873388127664704,-0.2897033562331678,0.1160619198307964,-0.2806128072730695,-0.2711221449602761,-0.1369618762534761,0.5799555133286356,0.07776932793320154,0.2104010790096753,0.4453910704758054,0.5371162800430798,0.05864877930944223,0.2208179659309029,0.4572392481507066,0.2827617476546339,-0.03805739785633051,0.2835065833266824,0.3143859326657559,786.9230769230769,799.0109890109891,786.1172161172161,797.8021978021978,744.2124542124542,-0.229919,0.052429,0.987488,4.501038,-6.355286,-3.215027,1,1,1,1,1,35.000000
2024-10-22 14:24:33.574,0.3920394674461675,-0.09445913289067867,-0.1802880935141464,0.3989431108813539,0.1160397987451319,0.01222842910069931,-0.2027096379710639,0.1548551932629062,0.846783716628121,0.2911321938909271,0.2482767146217389,0.6019449167038906,0.4612082421187267,0.07225027165291778,0.4537055294303952,0.418264078652143,0.2610496810136749,-0.1873040923350042,0.3483006472171035,0.1588554838230503,792.967032967033,791.3553113553114,798.2051282051282,800.2197802197802,772.014652014652,-0.230896,0.052124,0.984314,4.545898,-6.400146,-3.715973,1,1,1,1,1,35.000000
2024-10-22 14:24:34.571,0.6086665920178589,0.07388363300448561,-0.1104800174625208,0.5672125831154007,0.4246005444569979,0.1964163414364963,-0.2763618631037991,0.2346921912108558,1.198180370586157,0.315140271957621,0.2709422203550191,0.9118923563016756,0.4176745443489508,-0.02136333418562905,0.4632010558141569,0.3469134835791624,0.1562251165331923,-0.1792665542949118,0.3855136796532602,0.07917662009095593,791.3553113553114,790.5494505494506,784.1025641025641,795.3846153846154,625.7509157509157,-0.234741,0.055298,0.989929,4.508514,-6.467438,-3.349609,1,1,1,1,1,35.000000
2024-10-22 14:24:35.572,0.1194996431543217,-0.2995386353661219,-0.2672911859569631,-0.207825269146475,0.3715375668868439,-0.19231775470484,-0.2618007784133942,0.1694279446799325,0.7968433959562087,0.1590632679996662,0.3207321050444593,0.7597562871768928,0.3610733544138121,-0.1194134464307488,0.1261152543661187,0.3779706593305984,0.00305687549133175,-0.1566918463787416,-0.1034810255136376,-0.1060612785044438,799.8168498168499,801.025641025641,793.3699633699634,808.6813186813187,1048.021978021978,-0.229065,0.056824,0.985107,4.553375,-6.183319,-3.536530,1,1,1,1,1,35.000000
2024-10-22 14:24:36.574,-0.1159865887304096,-0.4053044325298344,-0.4927630947549851,-0.2192228616177771,0.4607836762725925,-0.1631871067675742,-0.1964189053599223,0.3115804657914787,0.9899184087276667,0.2570629183815,0.2421735923760354,0.7287073512553039,0.5009510766544769,0.1081587730177247,0.1807118080972227,0.2939381954105069,0.06319467155580699,0.03043131037996217,0.02775459509282412,-0.0165634412905017,804.6520146520147,788.1318681318681,814.7252747252747,807.0695970695971,846.1538461538462,-0.232483,0.052490,0.988464,4.979553,-6.669312,-3.491669,1,1,1,1,1,35.000000
2024-10-22 14:24:37.571,-0.03600790550991932,-0.5644068523077467,-0.5917907842907982,0.05858260139944361,0.650280865069834,-0.2704668887748243,-0.2238872437795439,0.4510997400859796,1.053803577171294,0.2108896776717124,0.2438310372815829,0.7592301891400798,0.4658963547768423,0.08444785626933131,0.4203273610329981,0.3401205085546079,0.06100645809540975,-0.05127990780610381,0.2270439824928444,0.0006022676487370739,810.2930402930403,792.967032967033,803.040293040293,793.3699633699634,747.8388278388279,-0.228882,0.050476,0.985046,4.441223,-6.467438,-4.142151,1,1,1,1,1,35.000000
2024-10-22 14:24:38.570,-0.2770206453002793,-0.4146298807824595,-0.7787832250844795,-0.07514736884052263,0.5425825725668476,-0.1888377156251442,-0.490598040488618,0.4152447510966668,0.7262278184172726,0.2244629793246221,0.1529778912488934,0.4787014835261761,0.4318297752668043,0.09110229866750297,0.4166959077469109,0.4208520496439949,0.1005763266882048,-0.02013728850273337,0.258336233145354,0.01427949452750398,778.8644688644689,784.1025641025641,788.9377289377289,792.5641025641025,1037.948717948718,-0.227905,0.051575,0.988770,4.755249,-6.385193,-3.626251,1,1,1,1,1,35.000000
2024-10-22 14:24:39.570,0.4846241577243504,0.3341414399067496,-0.14300867018512,0.7562723516763966,0.4902958294401059,0.01366213070196222,-0.5108682264783814,0.4887270236948155,0.8595096514511165,0.3607035305247883,0.02474749166487872,0.9483951885929726,0.5947564870480679,0.09363140499918488,0.3518467857374727,0.3862599083723612,0.2204029220862586,-0.02861375784140777,0.2587027408575774,0.2888756824542956,801.025641025641,793.7728937728938,786.5201465201466,801.025641025641,639.4505494505495,-0.226929,0.050720,0.987610,4.620667,-6.557159,-3.357086,1,1,1,1,1,35.000000
2024-10-22 14:24:40.577,0.5192955344238075,0.189426922575447,0.2222967810843036,0.6476366294279634,0.091815847535114,-0.2256116823399997,-0.2054326865828096,0.04373970620393492,0.5987039052733616,0.126388385378718,0.08331169834490987,1.108674206757295,0.5199648224442228,-0.02917984214428873,0.3750060066444362,0.64736074639132,0.3604247621349464,-0.01644992659822224,0.337217214901337,0.4163883610966487,802.6373626373627,799.4139194139194,799.4139194139194,794.5787545787546,614.0659340659341,-0.226135,0.050659,0.985779,4.418793,-6.392670,-3.701019,1,1,1,1,1,35.000000
2024-10-22 14:24:41.578,0.320168472196171,-0.2974616365112541,0.2064231530994624,-0.1596076453272092,0.1185191348804004,-0.0810433737145116,0.06405552483398186,0.03336988505961465,0.515261790833347,0.06565841208628914,0.3368924806335827,0.7735470185865563,0.4453589170623096,0.09427147663071797,0.3739913811813081,0.4912410479193551,0.2769938636536246,-0.002769914479256104,0.1424017944630143,0.2345850879509319,798.2051282051282,801.8315018315019,803.4432234432235,805.0549450549451,896.1172161172161,-0.228516,0.052551,0.985291,4.530945,-5.899200,-3.940277,1,1,1,1,1,35.000000
2024-10-22 14:24:42.575,0.1961111568107018,0.06621008884151668,0.2491991739817545,0.1274518362293623,0.3545612567516376,-0.003368833989828382,-0.01706181995633763,0.3174301996737053,1.201147428944837,0.2258080354986116,0.342060830098228,0.7778108452938348,0.5386435805027645,0.09047826038157547,0.3347481698301825,0.3769874582477779,0.04210302159988703,0.0006290630583668686,0.1061937351492009,0.0613312035931995,796.5934065934066,780.4761904761905,805.0549450549451,802.2344322344322,844.1391941391942,-0.230713,0.050598,0.982849,4.598236,-6.512299,-4.000092,1,1,1,1,1,35.000000
2024-10-22 14:24:43.578,0.3872170959847401,0.4296358191506781,0.2316719490369305,0.461674487516651,0.1780433439477233,-0.08165794922301471,-0.4733978603812166,0.2707973277176773,1.141339098149131,0.1781316895823244,0.1238017656720883,0.5832308021063148,0.5573347352546989,0.07880614672911636,0.4713668371568847,0.3667492114993504,-0.08683955788615885,0.0005909181579297541,0.1717785129594902,-0.1016668288182752,792.1611721611722,793.7728937728938,796.1904761904763,794.5787545787546,798.2051282051282,-0.227112,0.051270,0.985901,4.695435,-7.013245,-3.431854,1,1,1,1,1,35.000000
2024-10-22 14:24:44.571,0.1679091893506612,-0.1945684741268906,-0.4294929030364374,-0.01253228887161136,0.177928175693406,-0.2445423341104578,-0.3395037113162601,0.282444924044164,0.7063710655348397,0.05559688812217534,0.3526133792096396,0.7812989399224906,0.5753147039339634,0.1503303113569762,0.2811642169714958,0.5134876740909643,0.003271281842334804,-0.03589191459377279,0.1458513046734564,-0.1134364576075354,801.8315018315019,794.5787545787546,793.3699633699634,805.0549450549451,961.3919413919414,-0.224854,0.049744,0.986450,4.560852,-5.996399,-3.715973,1,1,1,1,1,35.000000
2024-10-22 14:24:45.576,-0.1950586275735102,-0.2906853574655583,-0.1696962834805101,-0.1171195321754371,0.1533894766353686,-0.196601588930904,-0.1906010671052215,0.1587622337061781,0.859775094455956,0.1545468107173385,0.2359606323190907,1.004570192488561,0.550347440229997,0.2670262207554213,0.2605330094013046,0.524865540673726,0.1265113543763055,-0.1294783716524966,0.1277426064314807,0.1106748329923855,797.8021978021978,795.7875457875458,802.2344322344322,790.5494505494506,782.893772893773,-0.227478,0.050659,0.985291,4.800110,-6.145935,-3.618774,1,1,1,1,1,35.000000
2024-10-22 14:24:46.574,-0.430055654751472,-0.3464574869783668,-0.2815701390049805,-0.255181269257665,0.2878889778134832,-0.2085055002711172,-0.215941933208028,0.3270077214376413,0.7847338883042214,0.3292973541737528,0.186535584664952,0.8307901629232464,0.3599662826987759,0.03112295635095379,0.3108576914172053,0.3111541252786931,0.1019451888380397,-0.04609832433086386,0.2059540634078379,0.2066674032298904,775.2380952380953,802.2344322344322,805.4578754578755,772.014652014652,800.2197802197802,-0.224426,0.054749,0.987610,4.396362,-6.751556,-3.715973,1,1,1,1,1,35.000000
2024-10-22 14:24:47.580,0.8768555609921175,0.2487014645743826,0.110337870234465,0.8463019188032365,0.7433255673269279,-0.2143870440105282,-0.6256157626829096,0.6335342091884418,1.287648504613578,0.3110542798222571,0.2258236207853669,1.07125494653861,0.6628908491390929,0.1753045322869415,0.3553095892379212,0.6088019157388188,0.24193388489309,-0.0352875380291996,0.1594431310421968,0.1863108092296073,797.8021978021978,801.4285714285714,790.1465201465202,790.1465201465202,1180.18315018315,-0.223511,0.049805,0.986938,4.762726,-6.317902,-3.940277,1,1,1,1,1,35.000000
2024-10-22 14:24:48.571,0.751253041508386,0.1807649229808285,0.178996408056606,0.6678759127202404,0.7170121011192683,-0.4111378832969519,-0.3587498985871128,0.5454987775949901,1.286362757805079,0.2455546191864538,0.4584210255709978,1.067979658733579,0.6996160828962285,0.2797443924599554,0.3589395368907873,0.5517968136547891,0.278518182012593,-0.01675081448217279,0.3021801748409362,0.2810917788149623,804.2490842490843,802.2344322344322,793.7728937728938,791.3553113553114,862.2710622710623,-0.223511,0.054504,0.986023,4.538422,-6.856232,-3.872986,1,1,1,1,1,35.000000
2024-10-22 14:24:49.580,-0.04038246645632226,-0.6044760423182008,-0.5202581521457287,0.2749220036590558,0.3546010235871659,-0.324362680566647,-0.1114466571603247,0.1563438499211784,1.14101957589318,0.06560396579659662,0.355422998086643,0.8894238591415486,0.5549243023372591,0.09891622853649176,0.3379902167919668,0.4706999089512638,0.2040786490790851,0.03356907575218532,0.2654307963519368,0.2687518994625518,805.8608058608058,799.0109890109891,802.2344322344322,803.040293040293,795.7875457875458,-0.223145,0.051941,0.988831,4.530945,-6.579590,-3.581390,1,1,1,1,1,35.000000
2024-10-22 14:24:50.570,0.3302326509091745,-0.402226135127643,-0.2166619483937294,0.3627269362635122,0.4797690988359383,-0.1560327013953703,-0.115757906198114,0.3473714095292491,1.203868522239113,0.2297618201310484,0.2544869067648953,0.9469286110339619,0.5482177326198098,-0.02122009692382029,0.2554683480213908,0.6002786457935725,0.08450173682011831,-0.0884086722038299,0.1112772121137607,-0.0006825800867204173,794.981684981685,790.1465201465202,797.3992673992674,789.3406593406594,746.2271062271062,-0.222900,0.056274,0.987488,4.628143,-6.138458,-3.558960,1,1,1,1,1,35.000000
2024-10-22 14:24:51.571,0.3104593114461948,-0.3022593423768673,-0.2996029348324368,0.01425381254795234,0.427577206759285,-0.141545011847592,-0.07805298248585678,0.3286042787387459,1.052081875783641,0.2865120083526952,0.2910459521733224,0.9095845940268126,0.6409104737425986,0.2355012602730354,0.21440866525508,0.5023682641846249,0.2703665114765484,0.03431223954860556,0.184076773144988,0.03545565376979599,799.8168498168499,799.0109890109891,790.952380952381,801.8315018315019,755.4945054945055,-0.224121,0.054626,0.991455,4.590759,-6.945953,-3.461761,1,1,1,1,1,35.000000
2024-10-22 14:24:52.570,0.198625331093116,-0.2228645467037614,-0.6384890084461347,-0.3936698149394368,0.1698979874975277,-0.5573793583370976,-0.0479262750074489,-0.1252960466880226,0.8973063760307918,-0.02044541346120019,0.3634723289034707,0.8003401547626122,0.5999261797033844,0.2351823614401628,0.2043006939735198,0.41336688156672,0.2030150908298392,-0.0899513117791442,0.1982711890333867,0.08976985779183029,803.4432234432235,793.3699633699634,784.9084249084249,804.6520146520147,848.974358974359,-0.222778,0.056030,0.986328,4.411316,-6.355286,-3.865509,1,1,1,1,1,35.000000
2024-10-22 14:24:53.571,-0.1712736304884717,-0.2760011089219237,-0.2459562494824176,-0.1190954186286765,0.08486223006465797,-0.2484280714250358,-0.1520388067374857,0.05988513660460399,0.6186227412438725,-0.01845070851028328,0.600773591138741,0.7419851612903924,0.5064926360691857,0.1741185521687177,0.3127289905166931,0.4212783786092116,0.04784479103432478,-0.207950433990531,0.184677342379781,-0.07222937436813229,779.2673992673992,787.3260073260074,802.6373626373627,799.0109890109891,1002.490842490843,-0.223328,0.053162,0.992493,4.665527,-5.450592,-3.514099,1,1,1,1,1,35.000000
2024-10-22 14:24:54.571,-0.1500667775794585,-0.03789344746886937,-0.1257012747125514,0.118408362943502,0.1305253533457982,-0.1384257362392355,-0.1132461281981197,0.07901664136436307,0.7765280956897211,0.1677047117952281,0.481537603014053,0.7418807939286058,0.4397813153673611,0.118052822892125,0.3350869782961163,0.4207147341820095,0.1729190171846396,0.02980727408296388,0.1827932336188196,0.08867239142953699,798.2051282051282,792.5641025641025,787.7289377289378,799.0109890109891,740.1831501831502,-0.223022,0.056824,0.992310,4.583282,-5.899200,-3.932800,1,1,1,1,1,35.000000
2024-10-22 14:24:55.570,0.1136889180054798,-0.4445793540911213,-0.5064966353095406,-0.2779165577780764,0.5211449723491181,-0.5125396685746932,-0.2370142619784271,0.2981247299914733,1.263432998049143,0.1963441970289389,0.3606807874355227,0.9874471077767731,0.472139917210671,0.01452622168521726,0.312723724864533,0.5558724136653914,0.1847120431137899,-0.03766861320896425,0.2012139090453762,0.07427473190966311,803.8461538461539,792.967032967033,780.8791208791209,798.6080586080586,617.6923076923077,-0.224060,0.051880,0.986877,4.605713,-6.587067,-3.521576,1,1,1,1,1,35.000000
2024-10-22 14:24:56.571,0.1056952352978464,-0.2116503361306369,-0.1663968811065694,-0.1757143783633139,0.4358200368412934,-0.3380073409617898,-0.08749988825722109,0.2449570617483367,1.098641540131845,0.1748063435510568,0.4668868208527897,0.9936189586667519,0.4856522027734552,-0.008383519399208509,0.2236115570274906,0.4567189254431601,0.1043791232434698,-0.01896300854321305,0.08322921239787832,0.0228289498356039,796.1904761904763,789.3406593406594,805.0549450549451,807.8754578754579,898.1318681318681,-0.223938,0.046997,0.986938,4.538422,-5.480499,-3.723450,1,1,1,1,1,35.000000
2024-10-22 14:24:57.570,-0.1833487648968826,-0.3177823046208503,-0.4990070855531873,-0.08292937247422262,0.1285588347251765,-0.4967838221131235,-0.2933851020444529,-0.007212872370252739,0.9733495621289576,0.023700598744038,0.4925035132839391,0.8487293907565931,0.5284095022641179,0.01394754813051202,0.2686632828984599,0.4700311391236206,0.03141045583791743,-0.02052051142863431,0.1124427665998302,0.1601245178598664,802.6373626373627,793.3699633699634,786.9230769230769,803.8461538461539,807.0695970695971,-0.222351,0.047302,0.985352,5.024414,-6.512299,-3.476715,1,1,1,1,1,35.000000
2024-10-22 14:24:58.570,-0.09126149524698186,-0.3627817313463934,-0.2038330998288735,-0.09959455492714483,0.2571383164596842,-0.3561275138999989,-0.120543785118538,0.1051315672294203,1.054526771736226,0.1892185898552244,0.3057562560822961,0.8290560989861816,0.479323428742465,0.175181995620989,0.2566843781545653,0.3630471433941239,-0.0002389491570692159,-0.03809488479796194,0.1454978836204816,0.1870455839836827,794.5787545787546,792.1611721611722,806.2637362637363,801.4285714285714,624.5421245421246,-0.221558,0.050598,0.985291,4.658051,-6.175842,-3.693542,1,1,1,1,1,35.000000
2024-10-22 14:24:59.571,0.1550122323290864,-0.4417805195103895,-0.08305622924895316,-0.04137138735494603,0.1974486837735512,-0.2457162935970051,-0.1109964829796576,-0.0590158811461658,1.002955909176097,0.2044559089417226,0.1349458831355896,0.6954136686871206,0.2488840377759597,0.1910002697788822,0.1743100350459484,0.339745256407835,0.1706838190895204,-0.06787752704459879,0.2253147971222887,0.2491375081126035,802.2344322344322,802.2344322344322,787.3260073260074,794.981684981685,871.1355311355312,-0.223572,0.053833,0.987000,4.523468,-6.086121,-3.880463,1,1,1,1,1,35.000000
2024-10-22 14:25:00.570,0.02950005115612413,-0.6280062578314735,-0.3311729729874948,-0.2058282291999373,0.1542438662301243,-0.2971213569145973,-0.3639622032876711,0.01346261744693031,0.9729744047324549,0.3198465400983329,0.1197266727724613,0.578673269012972,0.4344496620768119,0.08379236713798478,0.2939450737127633,0.4030794388099203,0.1628564742472852,-0.1668037451413902,0.181301277082511,0.06815457575165183,791.3553113553114,795.3846153846154,796.996336996337,794.5787545787546,531.0622710622711,-0.222656,0.053101,0.988892,4.388885,-7.222595,-3.626251,1,1,1,1,1,35.000000
2024-10-22 14:25:01.570,0.02431681055660584,-0.5564906295542533,-0.106625428098502,-0.3987616417753336,0.5657296687225234,-0.1849743766166805,-0.5651111017673103,0.2435363582533404,1.112517317787303,0.3587059706733654,0.1959824548794716,1.194184389413692,0.4880706041645318,0.07712475795487164,0.3324401399311895,0.5453784914545492,0.2442019346655341,-0.1185842306761507,0.1712411151322545,0.02655489736632342,811.0989010989011,801.025641025641,795.7875457875458,788.9377289377289,695.0549450549451,-0.219666,0.050964,0.991455,4.590759,-7.357178,-3.506622,1,1,1,1,1,35.000000
2024-10-22 14:25:02.574,0.1956667703535813,-0.3644194416197374,0.0002144509075810879,-0.1558510220791839,0.3980691571494709,-0.3676349858364087,-0.3022727754412246,0.1633376931428862,0.9477821074270467,0.1509928133564808,0.2845113128156891,1.160013016544488,0.4884644393202717,-0.02842535882057276,0.3924664215403651,0.5016680438728003,0.1814688838302576,0.008086168655795216,0.3943805878514763,0.0718292263185145,798.2051282051282,800.6227106227107,799.4139194139194,796.5934065934066,861.0622710622711,-0.221863,0.050964,0.988220,4.590759,-5.944061,-3.536530,1,1,1,1,1,35.000000
2024-10-22 14:25:03.569,-0.005837387856483702,-0.302383194028706,-0.3127255660280893,-0.01022849348563489,0.1474432003014814,-0.3630034513286804,-0.3930465050479456,0.1238190370533381,0.4941707710863716,0.1501088846338523,0.2352612546499532,0.6214888800829013,0.446461346418651,0.07637973382765686,0.2227046956840034,0.3949656594299916,0.1863391745886483,-0.06184354563584936,0.3158233365183683,0.1579742197471072,795.7875457875458,798.2051282051282,804.2490842490843,809.8901098901099,918.6813186813187,-0.221252,0.053894,0.990295,4.635620,-7.282410,-3.656158,1,1,1,1,1,35.000000
2024-10-22 14:25:04.570,-0.4557768019575499,-0.8583110732433016,-0.6035865507939081,-0.1191754367184332,0.06440246133507034,-0.5203670707637483,-0.3976406196048961,0.100878363050517,0.7880867081204733,0.1359048302762393,0.2175882453696809,0.8999961324865045,0.5298856001765142,0.1294084765408247,0.1709327524847223,0.346798304157964,0.09291136437826465,-0.2231009915313892,0.2591167765936661,0.090122831589992,801.025641025641,804.2490842490843,810.6959706959707,802.2344322344322,791.7582417582418,-0.221191,0.051331,0.990112,4.710388,-6.071167,-3.439331,1,1,1,1,1,35.000000
2024-10-22 14:25:05.570,-0.2130209710842675,-0.5296023209397126,-0.1605222300835104,-0.08728041926156727,0.2229063088441564,-0.5822100409871521,-0.197579269168886,0.315891772400652,0.8511559984326346,0.006592905693785959,0.3797704275864073,0.8941093447233086,0.3825134649990722,0.08033616780787071,0.192584429470098,0.3030169148000235,0.1092329969619071,-0.01937334516165279,0.2380508919330178,0.01499971851893163,790.952380952381,790.952380952381,809.0842490842491,788.9377289377289,811.9047619047619,-0.219666,0.054443,0.985962,4.441223,-6.101074,-4.052429,1,1,1,1,1,35.000000
2024-10-22 14:25:06.577,-0.005444372499790424,-0.5306219380109434,-0.2962798625363566,0.09421270337887842,-0.04831685173069908,-0.4557930282389369,-0.2586671633632997,0.07125235654861703,0.9618224154891603,-0.03669181724185641,0.2757875289375837,0.6263954813494261,0.4615468168734114,0.01539357383519002,0.4017621555851028,0.3418639958018305,0.1810925252949259,0.1212416941700104,0.0940703513966035,0.06598897507418912,794.981684981685,794.981684981685,806.6666666666667,788.5347985347986,658.7912087912088,-0.223999,0.051270,0.984497,4.523468,-7.207642,-3.940277,1,1,1,1,1,35.000000
2024-10-22 14:25:07.575,-0.05449536844047669,-0.5493572566709533,-0.1262394356880407,0.164337830886821,-0.01451344539152617,-0.4477545141819285,-0.3151397406203595,-0.1874323993682712,0.7886716729395271,0.04340022239396618,0.3568155484134219,0.9383571914408152,0.5167364934525746,0.1369729548025105,0.5673095951234164,0.541354762057552,0.1589651134533417,0.07628271652939884,0.2726903751341831,0.1643543448796959,803.4432234432235,795.7875457875458,790.952380952381,811.0989010989011,810.2930402930403,-0.221436,0.052612,0.987366,4.269257,-7.020721,-3.558960,1,1,1,1,1,35.000000
2024-10-22 14:25:08.580,0.006346815155436536,-0.2851459564391966,-0.1438432833938627,-0.1014775973311094,0.2595948070586258,-0.4239568282601702,-0.4303119319954235,0.06134557034725073,0.7484327298813507,0.1014008577847719,0.1464368058012055,0.8773681515766273,0.5426263683896608,0.257252717565964,0.3968871706248572,0.5582057973789337,0.2568825810405244,0.07477514561601233,0.2917043341529129,0.09882651370419789,794.981684981685,793.3699633699634,792.967032967033,788.9377289377289,743.4065934065934,-0.224426,0.054504,0.986328,4.523468,-6.669312,-3.506622,1,1,1,1,1,35.000000
2024-10-22 14:25:09.573,0.005318179533923459,-0.3570678574928269,-0.1288175008507064,0.04780458228269163,0.3127957445365418,-0.26141495822735,-0.645807410713267,0.04822891272752807,1.041466456848388,0.2134589973207767,0.2476033521760874,0.6692160312334448,0.551785688733027,0.2171603811297666,0.4818101636084491,0.4545188189477624,0.2863419225700978,-0.01857572310584818,0.3387607888621008,0.1469587203095614,794.981684981685,803.040293040293,791.7582417582418,795.3846153846154,589.0842490842491,-0.218872,0.052124,0.991394,4.366455,-7.499237,-3.768311,1,1,1,1,1,35.000000
2024-10-22 14:25:10.576,-0.07865192829965222,-0.7080713763025129,-0.6587872993316187,-0.09481792583161359,0.7731132839291504,-0.09841352206773481,-0.3026700976868853,0.2926295059625023,1.003699539702857,0.03628936334142892,0.1877445601934414,1.144514654941293,0.5056596550795516,0.2204665949338208,0.3833414356412237,0.4139106613226028,0.2386395251752956,-0.01471750640385198,0.1763016835438489,0.156913471411769,787.3260073260074,796.1904761904763,795.3846153846154,791.7582417582418,728.4981684981685,-0.222900,0.049133,0.988953,4.373932,-6.370239,-3.529053,1,1,1,1,1,35.000000
2024-10-22 14:25:11.570,0.2504639688269813,-0.6994029686773061,-0.5414991658839118,-0.04668999488550129,0.4111052863588771,-0.4411140041545271,-0.5234760568270588,0.2433521964872682,0.9732449361568006,0.0849422132264526,0.09954381946914075,0.9362648320882184,0.5352939428029924,0.2124363538411026,0.1350443731941642,0.2587200744196056,0.2254385184154764,0.01434364559561532,0.2236016255613159,0.0692973339241694,801.4285714285714,794.5787545787546,807.0695970695971,800.2197802197802,913.4432234432235,-0.217407,0.051025,0.988098,4.396362,-5.779572,-3.686066,1,1,1,1,1,35.000000
2024-10-22 14:25:12.570,0.1734998059174094,-0.5052163258197774,-0.4943837899828541,0.03339056682402986,0.3282326760760501,-0.6613171693633645,-0.3688992455312241,0.2445654316933727,0.6573426432441941,-0.02391610448137227,0.2680898577274143,0.989025188282172,0.4238298893321036,0.197270649716127,0.3357075692554797,0.3232676763734314,0.1672219450057018,0.003562586537598232,0.3698742377454204,0.08833963682727591,796.5934065934066,793.3699633699634,799.8168498168499,798.6080586080586,780.0732600732601,-0.218628,0.052368,0.989380,4.575806,-6.781464,-3.529053,1,1,1,1,1,35.000000
2024-10-22 14:25:13.570,-0.4649278764748798,-0.2600289894553741,-0.06427660821565528,0.2261257590813962,0.1565609165305517,-0.05615751178706032,-0.06943264496554602,-0.09414012556429306,0.660640197373171,0.00617335830282958,0.2362539666224271,0.9352661474487095,0.3660212491064226,0.04438991240427806,0.2781980305080589,0.3708926059927501,0.1456399815740872,-0.08630865785619718,0.3321911424526056,0.226539047322129,807.0695970695971,791.3553113553114,799.0109890109891,812.3076923076924,664.8351648351648,-0.218750,0.049561,0.990479,4.695435,-6.392670,-3.588867,1,1,1,1,1,35.000000
2024-10-22 14:25:14.653,-0.3615651185959279,-0.3345174683206379,-0.2283232613700416,-0.03532936567959067,0.127367118540346,-0.05312917374948872,-0.1280305605592951,-0.1232918217598968,0.5575982781765058,0.177510766989115,0.1020356781233911,0.7298173654130802,0.3714332583871574,0.08625432315932881,0.4356718903620124,0.6247699768757913,0.2763125194944068,-0.02289921637450509,0.3033311154628914,0.1726558469301583,790.5494505494506,803.4432234432235,803.4432234432235,810.2930402930403,861.0622710622711,-0.217957,0.052307,0.987976,4.717865,-7.245026,-3.618774,1,1,1,1,1,35.000000
2024-10-22 14:25:15.570,-0.4116723316030684,-0.4427041762385892,-0.6633095125050104,-0.08775612583061038,0.1098028965489312,-0.5376975888533746,-0.4148799994865626,0.02583537707714339,0.641549746981026,0.05888078559923514,0.1303254670033896,0.6882181762553435,0.4177192562111026,0.1265584801463122,0.4356779964914677,0.5645475492862946,0.3129688446188612,-0.05967435436239326,0.2250740028606428,0.1442166823342201,805.8608058608058,801.8315018315019,775.2380952380953,803.040293040293,790.5494505494506,-0.221863,0.047058,0.989197,4.523468,-6.564636,-3.985138,1,1,1,1,1,35.000000
2024-10-22 14:25:16.570,-0.08382920439395085,0.2456413591916719,0.4195823511405722,0.2415553441795312,0.375872762884625,0.1105466519946124,0.03277931968034845,0.3595768492366516,0.849159364384016,0.299961641355011,0.2458901247321671,0.6785341148416729,0.5406195563641102,0.06586644629370939,0.5625482627142376,0.5175682453097005,0.1945965006356569,-0.1080346170996992,0.4501284753057339,0.2212303803234802,793.3699633699634,792.967032967033,794.5787545787546,803.040293040293,1037.948717948718,-0.219299,0.047485,0.989563,4.560852,-6.654358,-3.544006,1,1,1,1,1,35.000000
2024-10-22 14:25:17.570,-0.04101673691575829,-0.0318952848511959,0.2350239783678506,-0.106989418483396,0.2816535387433711,-0.07795432088139019,-0.1235904006962517,0.1670026634403432,0.9288148979167794,0.1990494009210458,0.4280910468117916,0.66411230669484,0.5740662233057425,0.1516877323237701,0.4026027865005823,0.459514936270688,0.1171079630510672,0.1212362148334424,0.3653011162223733,0.2099337055881218,791.7582417582418,796.5934065934066,805.4578754578755,801.8315018315019,812.3076923076924,-0.216125,0.044617,0.990845,4.486084,-5.510406,-3.962708,1,1,1,1,1,35.000000
2024-10-22 14:25:18.570,0.2639536721289574,-0.4199377756415777,-0.2664719090836671,-0.1315234098662769,0.1416462699630407,-0.4460908296602697,-0.1404213982052964,0.2324469167294332,0.9318439083064464,-0.01062752529171539,0.3890453516487619,0.8481127905151622,0.4201407844435671,0.003479931445565261,0.4064189591716607,0.3609036349223633,0.211246790826305,-0.02001450157323733,0.2660181350752487,0.1678782133909482,798.6080586080586,815.934065934066,787.3260073260074,786.9230769230769,711.978021978022,-0.218628,0.043823,0.985596,4.755249,-6.086121,-3.656158,1,1,1,1,1,35.000000
2024-10-22 14:25:19.570,0.2944164303929248,0.1454884719949842,-0.3950538196685155,-0.06588831483683447,0.0631949677209812,-0.3593399363207536,-0.1107207115123229,0.1907101360700136,0.7402882572385113,0.4060719530470449,0.3676122103223474,0.8546795417404295,0.5172245077252626,0.1220606854642862,0.482676090810157,0.5692329122764104,0.274503970340336,-0.07955524243534863,0.4170814057131855,0.1686800273662699,802.2344322344322,792.5641025641025,794.981684981685,792.967032967033,743.8095238095239,-0.218811,0.048523,0.985657,4.358978,-6.213226,-3.244934,1,1,1,1,1,35.000000
2024-10-22 14:25:20.572,0.005885475570259322,-0.2541328205724088,-0.5039254072470044,-0.2164915112157061,0.1295236868740626,-0.333690166803117,-0.2564635585507468,0.07432569992146688,0.8142046799844586,0.4815132300941738,0.2745989031073973,0.8493172903910053,0.545268604457862,0.1543186019915984,0.3891293630463974,0.4814832031670772,0.1559622337927083,-0.1589115277766487,0.3310080143190044,0.1155884256168407,781.2820512820513,790.5494505494506,801.025641025641,789.3406593406594,794.981684981685,-0.218201,0.047058,0.988708,4.523468,-6.931000,-3.581390,1,1,1,1,1,35.000000
2024-10-22 14:25:21.570,-0.1400153751239037,-0.4408206672749205,-0.2646119885757715,-0.093683571254024,0.1525090564866634,-0.3556035837742188,-0.4754138881771121,0.2778301845430965,0.947697623689858,0.3490060490432705,0.1592773526034869,0.8928641966574833,0.3976701161264123,0.1172989583133962,0.2638947384496085,0.399569729181297,0.1912178807437042,0.02483513757502633,0.09348839669522269,0.1705637078855186,804.2490842490843,800.6227106227107,797.8021978021978,796.5934065934066,844.9450549450549,-0.221375,0.047302,0.989319,4.329071,-6.706696,-3.633728,1,1,1,1,1,35.000000
2024-10-22 14:25:22.570,0.09417203014102965,-0.3674284584125908,-0.06582422780335531,0.08870649695228613,0.3550518241991331,-0.3853015224999518,-0.1199551915161876,0.5122384293024456,1.073265563097387,0.08216785258856336,0.4266156897886375,1.156519608294864,0.4297367143626724,0.2446509066409259,0.2944234962513566,0.412819770903351,0.1570116614952311,-0.08679177484179118,0.2211147192150727,0.131805334611266,824.7985347985348,810.2930402930403,795.7875457875458,808.2783882783883,909.8168498168499,-0.218689,0.044067,0.992554,4.583282,-6.056213,-3.379517,1,1,1,1,1,35.000000
2024-10-22 14:25:23.572,0.155341867838243,0.1365026040167827,-0.1339337229433921,0.1439743243921374,0.427330398515477,-0.1069757084545592,-0.09255198273779081,0.4386246906014121,1.18784622609478,0.05383602592721088,0.4276426467025698,1.2083737847419,0.4545737996240361,0.3054173212592963,0.3817255087186519,0.4097879504182291,0.1641622986348511,-0.003289577803330054,0.5010469817169345,0.1236783872511606,809.0842490842491,796.5934065934066,794.981684981685,814.7252747252747,765.5677655677656,-0.222351,0.044250,0.988647,4.545898,-6.123505,-3.319702,1,1,1,1,1,35.000000
2024-10-22 14:25:24.619,0.08113596757565625,0.1665837177407137,-0.1504633513061052,0.04485959102988088,0.2204154713047411,-0.01332191499624074,-0.2565030051867072,0.1060152488730332,0.9958125569400775,0.2063298022584774,-0.04537830923745831,0.9964193969383629,0.5432877199307717,0.2402719547271834,0.4018216944721099,0.4426579156074537,0.2130701921136058,-0.05232861317806558,0.5580988237965747,0.1522195155244762,801.8315018315019,798.2051282051282,821.1721611721612,802.6373626373627,670.8791208791209,-0.224060,0.046448,0.985291,4.710388,-7.476807,-4.037476,1,1,1,1,1,35.000000
2024-10-22 14:25:25.592,0.04667263152457286,-0.1206441212378876,-0.2151415713881817,-0.2689034338509428,-0.1177842272797798,-0.5591528978681551,-0.2176529847819698,0.001740893319308904,0.8275745718907979,0.01877303382576146,0.293289942070339,0.6898734716041858,0.5819966108995849,0.09641973210246572,0.2753853501143722,0.3188132744372606,0.2496790925842862,-0.06875259513891792,0.2672399716028759,0.05204878832648392,796.996336996337,790.1465201465202,792.1611721611722,782.4908424908425,675.3113553113553,-0.217651,0.041321,0.993774,4.396362,-6.437531,-4.119720,1,1,1,1,1,35.000000
2024-10-22 14:25:26.570,0.06954823268020842,-0.05096028772542622,-0.0985381603419789,-0.1067366269753861,0.1421826544637982,-0.1134277788736554,-8.997092543932185e-05,0.141580763228231,1.080736038915902,0.0611705069820785,0.4408510925941901,0.8263944442393198,0.4405980313125181,0.1182789443115693,0.3567009351548378,0.4044845930035958,0.1515971331036774,-0.07018929436622408,0.1372067924487004,-0.004009066762715097,792.967032967033,796.1904761904763,808.6813186813187,798.6080586080586,975.4945054945056,-0.218506,0.043579,0.985474,4.673004,-6.833801,-3.723450,1,1,1,1,1,35.000000
2024-10-22 14:25:27.569,0.1170179798955292,-0.1609460841127256,-0.3291614633209118,-0.273730389422925,0.2413788999632872,-0.1199598469671116,-0.02467239108709946,-0.2089381165040675,1.000647870035884,0.08477108096321967,0.3838902813965394,0.6812885287015678,0.3378911279758559,0.07710091527908804,0.4172585716254592,0.4198347586498345,0.04926819298963589,-0.1567072333046831,0.1846294661538824,0.02729217078209262,792.967032967033,794.981684981685,806.6666666666667,789.3406593406594,672.4908424908425,-0.222534,0.043945,0.985535,4.493561,-6.145935,-3.521576,1,1,1,1,1,35.000000
2024-10-22 14:25:28.570,0.1997042335133974,-0.4232480133079367,-0.4234349759030189,-0.08115245743985115,-0.02293521234042278,-0.4452672276724097,-0.3340911347619547,-0.1125012854746519,0.7117265764718487,0.3368219094117486,-0.01401314429555297,0.659380564549215,0.3864860748686442,0.02751137516945797,0.4782554076904921,0.4414574544085353,0.08684816729530305,-0.1262171880835601,0.3146649835910214,0.07214065926679616,792.5641025641025,794.981684981685,799.8168498168499,790.952380952381,849.3772893772895,-0.222168,0.041565,0.987061,4.605713,-6.609497,-3.925323,1,1,1,1,1,35.000000
2024-10-22 14:25:29.574,0.2660291360901205,-0.6326906720545649,-0.2719484333817772,0.05596738555918696,0.08072751655672973,-0.5857424765239649,-0.1621402488447805,0.1062690955564212,0.8896504084084269,0.3098915124102871,0.3835832664419734,0.7243183910275537,0.5006601036946791,0.05248690352925124,0.513324576719399,0.4569609401899024,0.1602862441172514,-0.106169573885242,0.3500828387582532,0.1062964513764834,799.8168498168499,797.8021978021978,807.0695970695971,803.4432234432235,748.2417582417582,-0.218994,0.040955,0.990479,5.024414,-6.452484,-2.362671,1,1,1,1,1,35.000000
2024-10-22 14:25:30.569,0.1074373656865557,-0.4265715064465218,-0.261121297384663,-0.1113090673938513,0.5363480989100766,-0.306510528172368,0.03412488303476817,0.3667758211215135,1.219677554568569,0.3540075525482115,0.3726976444092213,0.7923198502086717,0.5566667251064095,0.1855539019244077,0.5449091739496287,0.5148280064689933,0.1684636103529641,0.004618337293729261,0.3460557367008338,0.2834439497069811,800.2197802197802,804.6520146520147,787.7289377289378,794.981684981685,643.8827838827839,-0.225220,0.043457,0.987793,4.628143,-6.145935,-3.372040,1,1,1,1,1,35.000000
2024-10-22 14:25:31.569,-0.3139737895074643,-0.3253644715961976,-0.350851219896634,-0.1157781456854009,0.4974175817275425,-0.1864041916863862,-0.1015031336988516,0.2089116045690604,1.158648999125148,0.371755472615197,0.2642303191072671,0.6754009593198708,0.4958218023830017,0.2770389579765317,0.4109108640903153,0.4091695213185923,0.1176039547221287,0.003586223047706122,0.2977322751737919,0.1297327867979016,796.5934065934066,796.5934065934066,802.2344322344322,795.3846153846154,686.5934065934066,-0.227600,0.045105,0.990295,4.538422,-6.609497,-3.416901,1,1,1,1,1,35.000000
2024-10-22 14:25:32.570,0.1637358137339064,-0.07358358610361905,-0.2093043440565059,0.4123476877688562,0.4328069226473698,-0.2055115174517833,-0.2449557094307697,0.3339587952837272,1.033751308500054,0.0398288141543698,0.01250531726301793,0.6005250188474303,0.5156423362868066,0.03391712505796631,0.2911215888714161,0.3550239116089,0.04331478801256497,0.01910635928272213,0.2448661977645363,0.197258831619864,806.2637362637363,798.2051282051282,795.7875457875458,808.2783882783883,730.9157509157509,-0.222595,0.047363,0.986450,4.725342,-6.639404,-3.566437,1,1,1,1,1,35.000000
2024-10-22 14:25:33.570,0.2647983545323593,-0.3831738466999694,-0.3749307315532051,0.2409665170099503,0.2611131681303606,-0.3441859658152551,-0.2441399877502296,0.2305567193227057,1.005098869211985,0.05424979646592683,0.2325399549804379,0.6495379300285711,0.6102015477018294,0.1588328955870627,0.2649070473729088,0.3756173364166231,0.1240600013823808,0.0297505305975581,0.3878792616440877,0.1114743129348469,806.2637362637363,798.6080586080586,801.025641025641,801.4285714285714,558.0586080586081,-0.221252,0.043945,0.985779,4.493561,-7.005768,-3.730927,1,1,1,1,1,35.000000
2024-10-22 14:25:34.570,0.1539829323941607,-0.5191489972600499,-0.3375943503406859,-0.07960790422621293,0.2995334435627965,-0.3193438632576716,0.01969923990970664,0.09710615785783959,0.9252935383091095,0.06902013671126442,0.3147487521299437,0.7568884084956312,0.5839827976302085,0.2086705705025876,0.2301104750262699,0.5070170649471512,0.2361350777035414,0.1003705711463377,0.2550619090507301,0.01216392299888069,795.7875457875458,795.3846153846154,793.7728937728938,797.8021978021978,763.5531135531136,-0.222961,0.043518,0.989685,4.433746,-6.893616,-3.424377,1,1,1,1,1,35.000000
2024-10-22 14:25:35.569,0.09218283449419024,-0.7230316976084548,0.04778379857105762,-0.1522091059130861,0.1336254862290407,-0.303103180727331,0.02586173488323532,0.07002376613518473,1.016991882447002,-0.09685951762482485,0.2573025923700569,0.7614443973236089,0.5424843219387988,0.1156956086137152,0.3593253552669838,0.4810054370008394,0.2219733832869478,-0.1022263129543051,0.2315668776107491,-0.0662456923949452,792.1611721611722,802.2344322344322,790.5494505494506,797.8021978021978,564.9084249084249,-0.223145,0.043579,0.991577,4.785156,-6.624451,-3.289795,1,1,1,1,1,35.000000
2024-10-22 14:25:36.570,-0.1640866971437488,-0.6821355203587264,0.1489021221074688,-0.1397654969115142,0.05855934991668903,-0.4563047732421409,-0.2286193841448582,-0.009313256905833374,1.172552161968616,-0.03380151590467786,0.2027549768024211,0.8307268282473632,0.5831876677786462,0.101320695605194,0.3608477875665491,0.4692392088054424,0.1474044792296857,-0.09500206314048887,0.2273852577051683,-0.01352774600823608,791.7582417582418,795.3846153846154,794.5787545787546,789.7435897435897,473.0402930402931,-0.219788,0.041687,0.990601,4.949646,-6.452484,-3.431854,1,1,1,1,1,35.000000
2024-10-22 14:25:37.666,-0.2443842531576832,-0.2855026320491765,0.2195797072376671,0.2222891897036398,0.1966777766173237,-0.3142119882832086,-0.06045377773754752,0.2178291263337914,1.07395296270705,0.006629476337507579,0.5067231006443105,0.7519106513280405,0.4512676156548782,0.07952537870095319,0.3595521058576664,0.3569193673023889,0.1835769298763097,-0.1958981932478019,0.2496461299052988,0.1157253959739913,794.981684981685,799.4139194139194,801.8315018315019,797.8021978021978,803.040293040293,-0.224304,0.036987,0.985962,4.605713,-6.534729,-3.439331,1,1,1,1,1,35.000000
2024-10-22 14:25:38.666,-0.0643857068228034,-0.2957387737324239,-0.12394993913293,0.02498462743922333,0.3673787484512817,-0.2311290637690373,-0.05465097601034359,0.3284113346777245,0.7932934248082978,0.07670485982089673,0.4978938639194112,0.7112918577758016,0.5714882448276534,0.09147043981980925,0.5478370985039184,0.3956831362019493,0.1536497077299625,-0.02411929002154789,0.2956903897515969,0.1217973717955823,790.1465201465202,794.981684981685,800.6227106227107,805.0549450549451,712.3809523809524,-0.222107,0.039551,0.989197,4.441223,-6.646881,-3.506622,1,1,1,1,1,35.000000
2024-10-22 14:25:39.634,-0.01167328076391249,-0.3441199952280864,-0.3151564046407379,-0.169378123411567,0.3312056333940518,-0.127116290739714,-0.2139161557409782,0.2172856075974444,0.927469402441286,0.33164132183641,0.3532425244555094,0.5883526861861524,0.6661373951607116,0.1544404395155584,0.508110511395104,0.3943299222223745,0.3050625456734287,-0.09428647222170737,0.2657494618050797,-0.067188332505601,807.4725274725275,801.8315018315019,805.8608058608058,793.7728937728938,765.1648351648352,-0.214661,0.037903,0.987915,4.515991,-6.287994,-3.566437,1,1,1,1,1,35.000000
2024-10-22 14:25:40.595,0.1206366517336424,-0.4427507065064259,-0.05899368693987032,-0.1619202349489102,0.4033890144279772,-0.2708244885303774,0.01682846376915681,0.2030177070812607,1.123710293119434,0.3288014504853927,0.3460736897525961,0.9798223295920918,0.6294013392559029,0.094137608175258,0.4230164709219172,0.4671337744259859,0.167928740255585,-0.1997008759091495,0.4111798458386277,-0.02311042809702542,787.7289377289378,801.8315018315019,795.7875457875458,799.0109890109891,900.1465201465202,-0.218262,0.039490,0.990845,4.388885,-6.243134,-4.074860,1,1,1,1,1,35.000000
2024-10-22 14:25:41.664,0.1720029761623234,-0.5210979736444847,-0.1507957654176911,-0.01438022423580352,0.3221998469517169,-0.4776723267135827,-0.3345870208800918,0.2069377861146843,1.088292623190708,0.1465429656425423,0.1952025900813799,1.029693848542809,0.4713023313878562,0.08944478295352179,0.4199862987032419,0.361665118984375,0.036171551704843,-0.2119189629564904,0.2288657993775979,0.007695131904235806,785.3113553113553,790.1465201465202,803.4432234432235,800.2197802197802,906.5934065934066,-0.215576,0.038147,0.991089,4.426270,-6.901093,-3.409424,1,1,1,1,1,35.000000
2024-10-22 14:25:42.610,0.08604986068747303,-0.3619775578379086,0.2258085873193678,0.1745061003666369,0.1555535913199621,-0.4175019132165604,-0.2170694058785854,0.1016660785275905,0.807728582602867,0.1433238580363621,0.213710531733769,0.9426403254987873,0.5705728447056355,0.08462608560597165,0.405785235043935,0.3367797374413061,0.0771052256932821,-0.1221026625932136,0.2939611220541767,-0.03348951914024839,794.1758241758242,796.1904761904763,799.8168498168499,794.1758241758242,625.7509157509157,-0.214783,0.036377,0.995361,4.545898,-6.736603,-3.633728,1,1,1,1,1,35.000000
2024-10-22 14:25:43.643,-0.170318327043491,-0.21915863140799,0.2127542267080308,0.01951672300622911,0.08537750697743754,-0.4529837930875208,-0.03993807924561501,0.2072596908131382,0.801732469184808,0.03875431079903289,0.2561043191826846,1.017730106840753,0.5904540282806441,0.1257698607296678,0.2809183400462396,0.4330577914317322,0.2236093997472885,0.01862546022698842,0.2663136100742682,-0.02642947990591275,798.2051282051282,794.981684981685,795.7875457875458,790.5494505494506,950.9157509157509,-0.220947,0.033447,0.989746,4.687958,-7.073059,-3.386993,1,1,1,1,1,35.000000
2024-10-22 14:25:44.605,0.1666701849991364,-0.5318034411289131,0.1330328129041581,0.1375774326879314,0.5331100813827818,-0.3868590632795476,0.197366180051654,0.4194587868654978,1.001659549504584,-0.1321278059948523,0.1709729150306606,0.7600052879311169,0.5542366971276628,0.1106472868571672,0.3157582003309402,0.5404622354161508,0.1499907203960869,-0.03413964504840371,0.2016056076143092,0.07825303511728372,796.996336996337,795.3846153846154,794.5787545787546,797.3992673992674,577.3992673992674,-0.222351,0.034912,0.990723,4.411316,-6.003876,-3.454285,1,1,1,1,1,35.000000
2024-10-22 14:25:45.663,0.3105064422346296,-0.1820538337994299,0.06350789371563222,0.2082996790705959,0.5124256847866588,-0.1563830512152486,0.101716117295897,0.177452807823707,0.9616163378049091,-0.005408940667609146,0.1024133517923775,0.7815209195056823,0.4551365181036569,0.1722550067662728,0.5120373506884119,0.3928256649299519,0.04920437329386806,-0.1489075331018003,0.4030024633744531,0.1677114894149283,795.7875457875458,790.1465201465202,800.6227106227107,808.6813186813187,860.6593406593407,-0.220825,0.036011,0.990112,4.373932,-6.175842,-3.671112,1,1,1,1,1,35.000000
2024-10-22 14:25:46.611,0.3332966333046468,-0.1146910388585216,0.01019378216242818,0.1892206233260924,0.2235230487930297,-0.09051383638652422,-0.03870478467510403,0.1731198175478081,0.8770456951953048,0.1791048519172608,-0.02493602814110567,1.135780691361578,0.5626324590718017,0.2033723209146124,0.593633793676172,0.4373860029736699,0.02032661151147435,-0.1150666878033596,0.48015247581682,0.2435484572853962,791.3553113553114,793.3699633699634,788.1318681318681,802.2344322344322,842.5274725274726,-0.223999,0.035645,0.986816,4.418793,-6.497345,-3.529053,1,1,1,1,1,35.000000
2024-10-22 14:25:47.626,0.5016138040959398,-0.08854997260277156,-0.0140363609740914,0.17692677220847,0.3861698506424878,-0.2396837896061522,-0.2426896157329262,0.5483170139366579,1.147831294653457,0.2477766427119419,0.1309156643546411,1.137795318475716,0.6564980427296564,0.1554635694616859,0.4176547954375025,0.478042859397931,0.2194594443270305,-0.1455594822516395,0.2367647563456582,0.2379259415173692,785.7142857142858,794.5787545787546,800.2197802197802,789.7435897435897,939.6336996336996,-0.222107,0.035095,0.989319,4.486084,-6.669312,-3.730927,1,1,1,1,1,35.000000
2024-10-22 14:25:48.609,0.4541342377469939,-0.1345640637798179,-0.1512510229264541,0.3197850730524018,0.603165889275052,-0.2953433786431922,-0.3182101532166262,0.5440078290245104,1.046123919974641,0.2417156147422483,0.365138445823283,0.835024212229128,0.5981924970544089,0.1752722028376905,0.555146648077197,0.5986068978620239,0.3465382296049693,-0.09905562924937471,0.1113475108242181,0.3325697572020803,802.6373626373627,805.0549450549451,811.9047619047619,808.6813186813187,764.3589743589744,-0.224182,0.034546,0.986267,4.665527,-7.117920,-4.000092,1,1,1,1,1,35.000000
2024-10-22 14:25:49.618,0.1598962994344795,-0.2303494950812245,-0.1137072755318128,0.1625112232905783,0.4279002624330644,-0.118584564479345,-0.2859616094194957,0.4332339637487638,0.7647917556641842,0.3163518498523042,0.4883833131040027,0.8506030539991845,0.535111970589584,0.1547377050823074,0.6186992077738588,0.6302773158909108,0.3102651828614896,0.0546919562087678,0.2742584132087376,0.2929931435479612,794.1758241758242,798.6080586080586,795.3846153846154,794.1758241758242,774.4322344322345,-0.222778,0.039062,0.991638,4.351501,-6.422577,-4.059906,1,1,1,1,1,35.000000
2024-10-22 14:25:50.625,0.1929390735726955,-0.250675985174746,0.0171000869735385,-0.1907743053443281,0.2848822248544787,-0.1580975249789406,-0.2272488202114138,0.1663305339086034,0.9476021195810898,0.2539477639765448,0.4136729789073132,0.8804398417384547,0.4514018397653017,0.1903568658289096,0.5040928209046123,0.6085056892832673,0.4548611506763605,0.128420649663121,0.251159290411116,0.2510201623355301,803.4432234432235,805.4578754578755,810.2930402930403,804.2490842490843,825.2014652014652,-0.216370,0.035339,0.988342,4.336548,-6.175842,-3.760834,1,1,1,1,1,35.000000
2024-10-22 14:25:51.624,0.2636753136048928,-0.2555895227550457,-0.04800150684092625,-0.1218916260579083,0.4230719578468551,-0.1228353254708008,-0.1138328060758956,0.2639720353737515,1.04730703289077,0.2973752156014506,0.1618362692936047,0.9040993629781774,0.6492280319007196,0.1945811135334462,0.5764368018689625,0.4829451068442024,0.3728564244360764,0.1351422167535917,0.2883087252944232,0.200372262895366,807.4725274725275,797.3992673992674,801.025641025641,801.025641025641,540.7326007326008,-0.213684,0.038818,0.992798,4.201965,-7.207642,-4.403839,1,1,1,1,1,35.000000
2024-10-22 14:25:52.602,0.1140898415067833,0.03095896999032385,-0.4083018238009867,0.0859007976135855,0.4616270570209743,-0.2011196023364746,-0.351554787316599,0.358757773260114,0.8350854163807794,0.2516152579538523,0.1091080859436342,0.7961236194717719,0.5692057860726486,0.1973540755194797,0.5015070685161844,0.3851530642694027,0.2223179873783218,0.1440500100833378,0.161724527930896,0.04672219462013059,811.9047619047619,795.3846153846154,812.3076923076924,801.8315018315019,564.5054945054945,-0.214844,0.037720,0.988831,4.583282,-5.906677,-3.529053,1,1,1,1,1,35.000000
2024-10-22 14:25:53.623,0.0259177779744505,-0.1609618792760742,-0.3670623804145374,-0.0833468144654507,0.4675119027031703,-0.1408108083146412,-0.4202196285459961,0.2106695060939049,0.987063609923208,0.2105406489366519,0.3502987309464836,0.7955776378349262,0.5002106161297767,0.23398157853465,0.4534991206139301,0.2517463581703783,0.2651570405752378,0.0223202499406312,0.01258845408733048,0.1097034131387444,810.6959706959707,805.4578754578755,807.8754578754579,806.6666666666667,453.6996336996337,-0.210999,0.032715,0.994995,4.583282,-6.878662,-3.648682,1,1,1,1,1,35.000000
2024-10-22 14:25:54.620,0.1516655270090823,-0.4135981771203283,-0.182390449202591,-0.07883787433857549,0.496368214938063,-0.06265378934235963,-0.44707941435531,0.3734690247731305,1.016417593174303,0.3515087720161428,0.2954692252677131,1.023531177366171,0.5962438380843552,0.2168544806312535,0.4023221162736774,0.4616949603363013,0.2264277020505505,0.0185176867747242,0.00684990024792907,0.1906041714350304,815.5311355311355,804.2490842490843,799.8168498168499,816.3369963369963,899.3406593406594,-0.211487,0.034546,0.990601,4.351501,-6.190796,-3.745880,1,1,1,1,1,35.000000
2024-10-22 14:25:55.664,0.1249036874794082,-0.2791157696328189,0.05418134820749925,0.07335640816939773,0.6425285458741217,-0.02128270612297607,-0.1175009879155524,0.6022950468848784,1.172796455146223,0.3912203384977588,0.3140787221551318,1.020901286232869,0.5513546168370872,0.2067524106741021,0.4279012113037535,0.4878783725172576,0.3222034668474329,0.08686884260579751,0.3037203432891177,0.2805509849252044,786.5201465201466,792.967032967033,788.5347985347986,787.7289377289378,833.2600732600733,-0.215271,0.035645,0.991272,4.515991,-6.512299,-3.177643,1,1,1,1,1,35.000000
2024-10-22 14:25:56.614,0.0769570979477389,-0.2790092949647866,0.098748277420718,0.4357559788283272,0.7667856811883045,-0.2544303192464175,-0.1587930136217709,0.5502938756564154,1.354034720908714,0.3588130978466765,0.34899329016834,1.304037390475534,0.7307700273988146,0.3757050418375829,0.6400712683693621,0.6385787676879177,0.4517604734113456,0.298310415060259,0.4709008363036196,0.2441319195572304,801.8315018315019,806.6666666666667,800.2197802197802,807.4725274725275,768.7912087912088,-0.210388,0.036926,0.992371,4.785156,-6.400146,-3.820648,1,1,1,1,1,35.000000
2024-10-22 14:25:57.659,-0.01489819971368695,-0.1796150499363964,-0.1967992170988898,0.1368404719199716,0.4761143903374963,-0.3280656826648757,-0.164636113555441,0.2943297240929563,1.30793244033082,0.3507035893252011,0.3081257624019006,1.24507270607349,0.6977455673420689,0.369301599053785,0.5433594939679227,0.5312551291831193,0.2819373383008312,0.2831736464345445,0.3516198761707408,0.2321453985000843,789.3406593406594,796.996336996337,790.1465201465202,791.3553113553114,793.7728937728938,-0.210266,0.039001,0.990356,4.508514,-6.527252,-3.566437,1,1,1,1,1,35.000000
2024-10-22 14:25:58.621,-0.2493826263288276,-0.593108411238643,-0.4501949555927782,-0.01486284453693342,-0.02374759433786908,-0.2809627123729357,-0.2019156762444576,-0.09010708943192983,0.8388687544735401,0.2708221457497624,0.3392302625862575,0.8465495306551619,0.6416654731846415,0.2218841354186067,0.348850000627161,0.5761253445992064,0.3401189766162215,0.03119964986390218,0.337243207342017,0.2325316204610644,793.3699633699634,799.8168498168499,792.967032967033,797.3992673992674,715.6043956043957,-0.209961,0.033264,0.989807,4.373932,-6.729126,-3.887939,1,1,1,1,1,35.000000
2024-10-22 14:25:59.653,-0.2713390394362554,-0.7577828249844396,-0.590114017258928,-0.05198186368996661,0.2496655988326784,-0.5123767662935413,-0.481056539476453,-0.2913191490183406,0.9785499131171815,-0.007711974432658765,0.3937752541949174,0.8761185243738264,0.6350343388276328,0.2543222504639651,0.333661778467545,0.5655094834780924,0.4554680913503308,0.0247268351130201,0.2677053855252808,0.2735443214301148,807.8754578754579,806.6666666666667,789.3406593406594,791.7582417582418,828.8278388278388,-0.207275,0.036499,0.993652,4.560852,-7.200165,-4.127197,1,1,1,1,1,35.000000
2024-10-22 14:26:00.619,0.1462736956195598,-0.3627496319215973,-0.320742885397195,0.04022554523663838,0.2325980384983817,-0.5881831087983183,-0.4492179296112466,0.06038486649603965,0.8998071946663136,-0.02098154649607363,0.1952665233851879,0.8463104218271194,0.5672302777599464,0.2544557796505643,0.3772745830159298,0.5753254619957072,0.3981512298901506,0.05733593371644281,0.1331571902140094,0.3180194919113742,795.3846153846154,794.5787545787546,800.2197802197802,786.9230769230769,670.4761904761905,-0.209473,0.037415,0.992981,4.515991,-6.616974,-3.132782,1,1,1,1,1,35.000000
2024-10-22 14:26:01.651,0.4890837073917455,-0.3677670021000282,0.1282663597575187,0.1997625724191575,-0.1169528777067445,-0.5302909053567603,-0.1130617440641101,0.02015251107468279,0.9438057986246656,0.05697330214770426,0.1086016421655931,0.8315293658790045,0.4593835473629725,0.1882559973320242,0.3043280476545218,0.4803851289338562,0.1295708862374771,-0.07602852520977849,0.09485876920838718,0.2088135992561981,808.2783882783883,792.967032967033,806.6666666666667,803.4432234432235,762.7472527472528,-0.208923,0.035950,0.992065,4.635620,-6.355286,-3.932800,1,1,1,1,1,35.000000
2024-10-22 14:26:02.650,0.5110601060809201,-0.4297895208035659,0.1035216592337397,0.1631796352947058,0.2576599160147583,-0.5864084165945681,-0.04907367394385814,-0.1227912212964991,0.9383436104253822,0.09919136683120799,0.04417321927385842,0.563361345909547,0.5206218923091763,0.1406192983379569,0.4429474352821057,0.4664931361540463,0.1988564706090297,0.07803547879259931,0.3270301094187971,0.2557222818611898,806.6666666666667,806.6666666666667,795.3846153846154,802.2344322344322,842.9304029304029,-0.210876,0.037170,0.990540,4.344025,-6.392670,-3.641205,1,1,1,1,1,35.000000
2024-10-22 14:26:03.637,0.09459637198513003,-0.5296179388977132,-0.2726298038029573,-0.09393863857011224,0.3083428198493142,-0.4155589864670811,-0.2122221504748763,0.05811549229895765,1.123042140975029,0.3258545740331612,-0.02878724276911344,0.6144207316758825,0.5168096256170199,0.04334125211332018,0.3863709237414373,0.3695080634605951,0.25416400710122,0.1641571018947787,0.262317355881959,0.3205527360787002,796.996336996337,796.5934065934066,807.0695970695971,801.8315018315019,808.6813186813187,-0.210938,0.037842,0.990845,4.575806,-6.063690,-3.409424,1,1,1,1,1,35.000000
2024-10-22 14:26:04.647,0.1490872383413221,-0.5897089627032064,-0.3156587158718037,-0.1001502996839606,0.1635744180015813,-0.1906496763776415,-0.4706997084588169,0.04348750897030754,1.107224551683827,0.4195789869987263,0.1278071126694064,0.914863719469044,0.4794808229113526,0.02980101254735317,0.3261128257236682,0.4771000870788403,0.1765410516725743,-0.07021909716028928,0.166708683938479,0.2673880826429634,798.6080586080586,798.6080586080586,793.3699633699634,794.5787545787546,681.3553113553114,-0.209961,0.038330,0.992188,4.725342,-6.916046,-4.052429,1,1,1,1,1,35.000000
2024-10-22 14:26:05.637,-0.2238713059597638,-0.3499434159565116,-0.283787123575701,0.07722643209014782,0.05519834196175625,-0.4512045749579493,-0.3358542031372898,0.1064445653145125,0.8049009124680543,0.08199205320161702,0.1446036272460544,0.8550059644464348,0.4125343884883027,0.135717762278627,0.2840874154361645,0.4508445466251295,0.01245504238694864,-0.1381136022406348,0.2189995067111716,0.1336033688834635,807.0695970695971,803.8461538461539,803.8461538461539,796.1904761904763,786.5201465201466,-0.209595,0.040344,0.990845,4.456177,-7.379608,-3.431854,1,1,1,1,1,35.000000
2024-10-22 14:26:06.637,-0.1336251690516304,-0.197246776872744,-0.1250619413881705,0.04200672017177827,-0.0720799630097214,-0.5272229622403689,-0.2520997767153982,0.1680099147475464,0.769486165301038,-0.007412246295174776,0.08000425544603607,0.6775752307046067,0.4942916967717756,0.157256824392148,0.3488377333854238,0.52971601045804,0.09957222365939979,0.0685313314005177,0.3115782373276786,0.1484085074272743,788.1318681318681,798.6080586080586,807.8754578754579,790.952380952381,870.7326007326008,-0.213928,0.038269,0.992188,4.373932,-6.415100,-3.499146,1,1,1,1,1,35.000000
2024-10-22 14:26:07.641,-0.00788504433021645,-0.116402790586607,-0.1664481650189523,-0.02889839415338044,0.3301670281757511,-0.1645058881715914,0.005423874190257884,0.3503407266566483,1.122224889549026,0.1107794368752066,0.299085051109131,0.824213161035565,0.6655181671505195,0.1521186293492309,0.4087571344141269,0.5972101139940845,0.1375717418667099,0.142734755268097,0.262621893402655,0.1667475814534408,785.7142857142858,791.3553113553114,792.1611721611722,778.8644688644689,661.6117216117216,-0.210327,0.032837,0.990051,4.583282,-6.699219,-3.760834,1,1,1,1,1,35.000000
2024-10-22 14:26:08.617,-0.1824672903804126,-0.4920755877084783,-0.1225910239571518,-0.5041965929595114,0.3708558237378098,-0.3348197780815115,-0.2144700399708847,0.1163054107452301,1.196287170653417,0.1270337212497215,0.4273872838840634,0.8355354021102477,0.567288839230935,0.207590189597423,0.3784155429207654,0.3200416212079542,0.3080816016836831,-0.08926741424835,0.2812662256672914,0.05663576468096686,781.2820512820513,796.1904761904763,796.1904761904763,800.6227106227107,780.8791208791209,-0.211731,0.033508,0.988098,4.486084,-6.452484,-4.052429,1,1,1,1,1,35.000000
2024-10-22 14:26:09.663,-0.6505623611757921,-0.5588777909798789,-0.3311006320130359,-0.3774453416388139,0.2237334067698915,-0.3992138040041449,-0.3785288875572318,-0.0744004812946327,0.9292370751178243,0.1039475198578766,0.148279438308551,0.6721084708838639,0.4371055008702646,0.2067875381298357,0.4859673074091911,0.2877446984499822,0.3016001057492148,-0.008726190074029222,0.2212298272587266,0.02335857663841729,798.6080586080586,799.0109890109891,798.2051282051282,810.2930402930403,788.9377289377289,-0.213379,0.035156,0.989197,4.441223,-6.639404,-3.910370,1,1,1,1,1,35.000000
2024-10-22 14:26:10.627,-0.1466682075303222,-0.3106787418562186,-0.6395686901741953,-0.1279283304779028,0.3360591390567019,-0.22455779422512,-0.5356075309198607,0.1112524296415672,0.9317721031551889,0.01681612175204559,0.05254813057187218,0.6529081479504936,0.4179099060069537,0.2417495963217039,0.5101187149566665,0.2812015290636478,0.160182966589868,-0.103619111369056,0.2769681346347073,0.04200636948309269,805.8608058608058,796.996336996337,798.2051282051282,796.1904761904763,765.1648351648352,-0.212769,0.039795,0.991821,4.351501,-7.259979,-3.872986,1,1,1,1,1,35.000000
2024-10-22 14:26:11.662,0.1101840333970181,-0.1190170087074545,-0.1935320355430742,0.08244621231096323,0.1659231277607014,-0.2900598155688793,-0.2457833945090402,0.09249004910175329,0.4665770448053846,-0.07801522998376614,0.2903437657550534,0.525349998468842,0.4815252940890205,0.1069572282935623,0.472270685600568,0.4146200891761922,0.1532183125477596,-0.2217280604661024,0.16279228072523,0.06948772942267249,792.967032967033,803.040293040293,797.3992673992674,788.1318681318681,784.9084249084249,-0.207092,0.035278,0.992981,4.501038,-6.482391,-3.678589,1,1,1,1,1,35.000000
2024-10-22 14:26:12.640,0.2309859350443567,-0.184517583318724,-0.1627763991722116,0.3234082304010962,0.4826787744014615,-0.3781233029846946,-0.1784477337578282,0.2408748790583011,0.6759038110293684,-0.03989285805934144,0.2985703755781938,0.5793617758871162,0.5534153820185606,0.1940588030001757,0.4416787893001692,0.4664412525334588,0.1328391644254562,-0.3353904893066583,0.2448557036451003,0.09684642582164413,799.8168498168499,804.2490842490843,800.2197802197802,800.2197802197802,925.934065934066,-0.210449,0.034668,0.986877,4.568329,-6.639404,-3.723450,1,1,1,1,1,35.000000
2024-10-22 14:26:13.625,0.3147628530322722,0.1596741551767593,0.1600208659453197,0.2831509540230443,0.5184904267769116,0.09394657551908275,-0.06456054445135474,0.3050327565082993,0.6616209419863802,0.05496663860744632,0.113103569708296,0.4274708240966967,0.5385255098726606,0.209330146349241,0.5240013344119546,0.4702232630490132,0.2296894726138632,-0.1864000184591597,0.3063429686938303,0.1455848785504403,793.7728937728938,786.1172161172161,780.4761904761905,780.8791208791209,576.996336996337,-0.208435,0.035828,0.990906,4.396362,-6.445007,-4.142151,1,1,1,1,1,35.000000
2024-10-22 14:26:14.627,0.8488964465734026,0.5453773901657831,0.5951350382052516,0.5670672464129685,0.5575453182274113,0.1688571840280526,0.03905865319147291,0.4737747108607244,1.359781210648126,0.1763659442574614,0.2217163322885058,1.139795449642861,0.6028550621163221,0.2102106023310525,0.4882146628707457,0.594921835120823,0.2730009091784423,-0.08587693447980485,0.2435448080462664,0.07755174744007937,800.2197802197802,793.7728937728938,797.3992673992674,794.981684981685,496.8131868131868,-0.203064,0.035156,0.991577,4.792633,-6.848755,-3.364563,1,1,1,1,1,35.000000
2024-10-22 14:26:15.667,0.5268990388823418,-0.1952722632572693,-0.1477892351309236,0.4585104996598431,0.4459959800030031,-0.1667714588302533,-0.3434431944049812,0.1579517291867296,1.35776289532139,0.2944279322477825,0.1106774166339941,1.146542531347989,0.5929287496280005,0.2993189349306203,0.3937810407551225,0.6438493488893042,0.1759808020763885,-0.01866392909052294,0.3058221107524409,-0.02662362435196653,804.6520146520147,807.0695970695971,798.2051282051282,791.3553113553114,726.8864468864469,-0.201843,0.033264,0.992981,4.792633,-6.452484,-4.037476,1,1,1,1,1,35.000000
2024-10-22 14:26:16.618,-0.179475419066846,-0.5033226652008176,-0.2097901970565901,-0.3642303438600798,0.2425871833548886,-0.268533426471349,-0.4095855798003989,-0.009911334733348112,0.8046723982977418,0.168966028478661,0.07874309590912014,0.8849961771129846,0.4879206225326112,0.07133632772181267,0.3926899095349758,0.4532273722321427,0.1216018598041114,-0.02340249211779631,0.3038045565043279,-0.09950624164885767,796.5934065934066,799.8168498168499,795.7875457875458,801.8315018315019,522.1978021978022,-0.200684,0.040222,0.991760,4.770203,-6.691742,-3.641205,1,1,1,1,1,35.000000
2024-10-22 14:26:17.663,0.07582440103884548,-0.6121926896442219,-0.1400542375096051,-0.09230129662388982,0.2524272127547263,0.02943596120605544,-0.1369538214673601,0.06849560805326967,0.6825325366373333,0.01926578096830833,0.2507618363623142,0.7295345323739725,0.5720509890275115,0.1456535611407919,0.5006858267596082,0.50328040757342,0.2382464331835477,-0.1561186462310931,0.3131912773894178,-0.03199306443990436,797.8021978021978,790.952380952381,798.2051282051282,795.3846153846154,656.7765567765568,-0.202942,0.040466,0.996948,4.403839,-6.975861,-3.970184,1,1,1,1,1,35.000000
2024-10-22 14:26:18.621,0.2256380722703301,-0.3186535842171775,-0.1733532252951396,0.1340686787100192,0.229107750472512,-0.02502809932271411,-0.1262283175906734,0.163482580032303,0.7602406913420351,0.1903079577395448,0.2746589821054286,0.6445574783630276,0.5127345715803148,0.1342082548017474,0.413511767215574,0.5311275199274146,0.3046363422644521,-0.07832249952043391,0.2332335423385452,0.05991366418825027,800.2197802197802,801.025641025641,805.0549450549451,798.6080586080586,761.941391941392,-0.207642,0.036133,0.990662,4.792633,-6.856232,-3.865509,1,1,1,1,1,35.000000
2024-10-22 14:26:19.620,0.1151862794683353,-0.4536657751851733,-0.2254487005605552,0.3096638646722454,0.2892210206125325,0.04535156471400411,-0.4371501015486337,0.2615317756071768,1.073108275889725,0.5103202922798022,0.06050321834037995,0.871841069928974,0.4798228676300572,0.1513034046656093,0.4620122002926311,0.4457425681295934,0.3284459657341369,-0.08083652940464517,0.3045809345313897,0.1398705300355917,793.7728937728938,796.1904761904763,796.1904761904763,789.7435897435897,614.4688644688645,-0.204346,0.036682,0.995850,4.486084,-5.899200,-3.925323,1,1,1,1,1,35.000000
2024-10-22 14:26:20.662,0.3181648169553179,-0.1599422190560016,-0.5009059624983645,0.1269677016724119,0.3746973764707732,0.04729052983969043,-0.3274922197271968,0.3154975922783145,1.060977146118142,0.4771376405640283,0.230774100683012,0.8577445273017128,0.4846332401444746,0.1203405277218288,0.3672752157276745,0.5020685340145481,0.2320506778461059,-0.1720952784999734,0.1984856030890451,0.1462835663556475,796.5934065934066,793.3699633699634,793.3699633699634,797.3992673992674,910.2197802197802,-0.202881,0.040405,0.993286,4.530945,-6.056213,-3.327179,1,1,1,1,1,35.000000
2024-10-22 14:26:21.618,0.1424152155773535,-0.2155320080765056,-0.6101838554104884,-0.1989067984162617,0.3094228338638393,-0.2012792933884815,0.003095056182030586,0.3929004090595837,0.7465304424357425,0.0562468255852738,0.3225181940476479,0.8814843189677044,0.3807317894006607,0.07053059094486883,0.2795793938558178,0.3446867344066337,0.2551794727738169,-0.1577406841825193,0.06018758468065723,0.08065091880676954,794.981684981685,795.3846153846154,801.025641025641,787.7289377289378,780.4761904761905,-0.204041,0.039551,0.992737,4.665527,-6.101074,-3.775787,1,1,1,1,1,35.000000
2024-10-22 14:26:22.632,0.1210082325452074,-0.3216642182978593,-0.460671520339155,0.1338651329109146,0.6037517290895414,0.07102695215071432,-0.0906361670293863,0.521403332030657,0.9661097976153259,0.3831083480596545,0.1088953690249004,1.054211755687293,0.783333877821016,0.259619601035629,0.4311424873795239,0.5612516580931665,0.1530736720909968,-0.281788115550495,0.2416697810345956,-0.005339883032590733,812.3076923076924,798.6080586080586,798.2051282051282,800.6227106227107,418.6446886446886,-0.203186,0.037781,0.992981,4.530945,-6.676788,-3.970184,1,1,1,1,1,35.000000
2024-10-22 14:26:23.619,0.1326561476643353,-0.760956635164425,-0.2921961963257099,0.1073073308624263,0.4489729957296966,-0.1139965556677471,-0.07320079499355261,0.3315924267929919,0.9593237707825886,0.264684551831621,0.2302440082850865,0.9864865272441484,0.6741814666028223,0.1786962837528273,0.3505502044889725,0.5311860704376554,0.2126814021165868,-0.08253723095363062,0.2123940310181038,0.1587004230501518,807.4725274725275,791.7582417582418,795.3846153846154,797.3992673992674,808.6813186813187,-0.200623,0.038513,0.994690,4.583282,-6.654358,-3.701019,1,1,1,1,1,35.000000
2024-10-22 14:26:24.572,-0.2147054559508017,-0.2202163840715607,0.2327050567267712,-0.3619522833488672,0.07712377294915859,-0.1122852390553043,0.147544319210398,0.1272279986495932,1.037475413822325,0.1108586952249095,0.3364466773904781,0.6637103092423736,0.6052877270247384,0.2715126312635982,0.4418198144471533,0.3983590766446904,0.2115976052278565,0.05674419358904984,0.0760306962840321,0.05467929486906126,808.6813186813187,803.040293040293,800.6227106227107,803.4432234432235,733.3333333333334,-0.200867,0.036987,0.990540,4.441223,-6.893616,-3.962708,1,1,1,1,1,35.000000
2024-10-22 14:26:25.572,-0.2507068833539127,-0.3139966239647661,0.217442499152374,-0.1202758405222155,0.1399279314223467,-0.2844235745723919,-0.03170129674439676,0.03167432722807842,0.9806399600969475,0.07290026900781847,0.2167857219046082,0.6270850943469679,0.5153526352695584,0.317737601483941,0.5964143924879064,0.3474668996652695,0.1209939989720771,-0.03556365337007475,0.2500565095965241,0.09806669565650845,807.0695970695971,798.6080586080586,796.996336996337,795.3846153846154,623.7362637362637,-0.202576,0.035522,0.996155,4.598236,-6.407623,-3.536530,1,1,1,1,1,35.000000
2024-10-22 14:26:26.572,-0.1828494679659561,-0.7772935059595232,-0.8040869422428087,0.08512372781612997,0.2519806948561811,-0.5896719300040544,-0.7012944454023946,0.07803240806257308,0.8480666600473631,0.1288140653719934,-0.0003273699508735023,0.6507423013999175,0.4532535907712935,0.1227646285443604,0.2635330903681788,0.3561432908355385,0.08732899442610709,-0.1268567964434796,0.1706565250394319,0.01275381525537638,803.040293040293,800.6227106227107,800.6227106227107,812.3076923076924,838.901098901099,-0.200378,0.035828,0.987183,4.725342,-6.527252,-3.813171,1,1,1,1,1,35.000000
2024-10-22 14:26:27.572,0.1429663221426084,-0.4220263403187897,-0.6638355607670252,0.02760686489890269,0.1804115296427163,-0.371967260395798,-0.555732686360132,0.1098532529216522,0.8140806962166817,-0.02948104407771195,0.1640839643523472,0.7400416122743955,0.4803626313077584,0.1526967006423486,0.207333721695365,0.3741976294311907,0.1656864726454781,-0.04941312769456561,0.04980925986681865,0.02226170257306593,799.0109890109891,794.1758241758242,791.7582417582418,801.025641025641,818.7545787545788,-0.200562,0.034790,0.987732,4.545898,-6.811371,-3.955231,1,1,1,1,1,35.000000
2024-10-22 14:26:28.598,0.1846784998855126,-0.3284489360483543,-0.4503259220506712,-0.3363429099658319,0.2030388264710186,-0.1898969689502859,-0.2990783003958065,0.1065533570160016,0.6733552325472993,0.09956371356964744,0.1733241597970674,0.6841962192013002,0.5110975319033313,0.02082276796038732,0.349594919682249,0.4149889311643009,0.1354632821553468,-0.1335785786644245,0.1514686680675664,0.196857582044741,801.8315018315019,798.6080586080586,802.6373626373627,799.0109890109891,818.7545787545788,-0.202332,0.034241,0.992188,4.523468,-5.831909,-3.671112,1,1,1,1,1,35.000000
2024-10-22 14:26:29.668,0.005777781917516896,-0.5216400441692822,-0.401779415942709,-0.319260482301212,0.1468845792205183,-0.07188331039951583,-0.1406324574247539,0.06153149703520658,0.9133289245782504,0.118480649152773,-0.008637412812900098,0.8230331008329526,0.4842362160145033,-0.02285772528347787,0.4505607964010722,0.3076585938193229,0.1157061269720473,-0.03552300745633284,0.2303255607129922,0.1074016387660476,800.2197802197802,802.6373626373627,793.3699633699634,793.7728937728938,833.2600732600733,-0.205261,0.034119,0.993286,4.553375,-7.095490,-3.155212,1,1,1,1,1,35.000000
2024-10-22 14:26:30.655,0.5249283485746128,0.086719038052057,-0.1763079760802416,0.6098265969387346,0.1551739651466368,-0.4190758712398801,-0.2013584962627965,0.1956718077107913,0.9972488020858852,0.09214505012554811,0.2508642105980389,0.8504714384938804,0.5225271491449602,0.1418079933998734,0.2904040123012409,0.3855345897959784,0.3254201379143311,0.1197446672792975,0.1880428270033158,0.0528889438489431,807.0695970695971,794.1758241758242,794.5787545787546,805.8608058608058,778.4615384615385,-0.206360,0.035828,0.995056,4.575806,-6.355286,-3.895416,1,1,1,1,1,35.000000
2024-10-22 14:26:31.633,0.5597768147450171,0.0429296330437148,-0.1150427980900131,0.6468646404118732,0.5423807995886774,-0.3200107120083337,-0.2574373674608505,0.4720689776120166,0.8589604541506817,0.06364800686948702,0.2444847526946121,0.8289341682598494,0.3972008409471371,0.1895378736614415,0.4603043561245286,0.638900583024882,0.2715542637230097,0.1199104864491231,0.2165292459257263,0.1839510853034293,790.952380952381,799.0109890109891,794.1758241758242,795.3846153846154,758.7179487179487,-0.202271,0.036804,0.997253,4.545898,-6.960907,-3.858032,1,1,1,1,1,35.000000
2024-10-22 14:26:32.602,0.07204230089444119,-0.4598310155372773,-0.202325212516811,0.1985897283891836,0.173608435059032,-0.5342989880880438,-0.3476765330277206,0.2752757497584816,0.7806148206146751,-0.05081738928930189,0.1843794650630483,0.7943230099719324,0.4991561947924744,0.05373420283084227,0.4756003209862016,0.570351950969968,0.1650688673106187,-0.01271090771097738,0.1529978137709631,0.04608689065648786,807.0695970695971,796.996336996337,813.919413919414,812.3076923076924,753.4798534798535,-0.206970,0.037354,0.992249,4.373932,-6.766510,-2.818756,1,1,1,1,1,35.000000
2024-10-22 14:26:33.597,0.04497541969167341,-0.3330508938034341,-0.1941519254309374,0.08198245950065759,-0.09991603407032761,-0.4536901629899997,-0.2807461304575428,0.02350696892622236,0.6514424968513565,-0.1818837361925688,0.09840721442171135,0.5734414927445995,0.4387833147959511,0.0648574081363477,0.4131803509183369,0.4272916457590771,0.321106248473144,-0.07171553302250691,0.2272036378860908,0.03037290872824922,786.1172161172161,797.8021978021978,793.7728937728938,800.2197802197802,708.7545787545788,-0.203491,0.040283,0.990479,4.396362,-6.243134,-3.327179,1,1,1,1,1,35.000000
2024-10-22 14:26:34.594,0.2212135656125018,-0.3604713476217435,-0.4981118167545648,-0.2557329774807331,0.05483582683589899,-0.3798023505747384,-0.1273627766045124,-0.0983171543684585,0.7876080786302947,-0.2808117644927176,0.1857604155113177,0.6582148978977909,0.4247432943794487,0.06928101665649404,0.3572255935876857,0.3860632196174889,0.3087383721341001,0.02709995033779572,0.2329817644890917,0.1482929433115204,796.1904761904763,792.5641025641025,789.7435897435897,796.996336996337,593.919413919414,-0.203735,0.037292,0.995361,4.598236,-6.385193,-3.566437,1,1,1,1,1,35.000000
2024-10-22 14:26:35.593,0.04068271189825533,-0.3942739400432919,-0.5413472244171736,-0.1140243292334025,-0.02359359343596416,-0.1499682440668416,-0.3487497532650832,0.04299119875351994,0.9075053023672461,-0.1166672240634015,0.1382591795971164,0.9069155284507096,0.5511564788704131,0.2410304446418823,0.387689915158067,0.5986564337051814,0.2161996073337083,0.09820416273964243,0.2340652689920568,0.2309438501631344,794.981684981685,794.5787545787546,807.8754578754579,803.4432234432235,748.2417582417582,-0.208130,0.036072,0.990173,4.501038,-5.988922,-3.379517,1,1,1,1,1,35.000000
2024-10-22 14:26:36.669,0.4796295827335731,0.01835435455700846,0.04826005937316144,0.4721087245370666,0.781356034549841,-0.1946155893108878,-0.03440840587182375,0.6997956298735295,1.187878220435259,0.2563087643969812,0.3795443586973995,0.898081440085968,0.6794562666734616,0.2699922428964716,0.4387472900881083,0.583247849924086,0.1068358620093172,0.06673260239829229,0.4044984582381818,0.07245278731685603,808.6813186813187,797.8021978021978,798.2051282051282,805.8608058608058,879.5970695970697,-0.205627,0.037537,0.993286,4.792633,-6.796417,-3.663635,1,1,1,1,1,35.000000
2024-10-22 14:26:37.571,0.5590570930832832,0.1946705344480707,0.172399168698327,0.451543445183421,0.8550097017527183,-0.1114479159714518,0.06994435317357489,0.7038435799950893,1.18672766036262,0.2541406949112865,0.383341327336421,0.7435900389813584,0.6192558853904832,0.1596410492795791,0.4503017748711867,0.4251590697024697,0.2290199139232567,0.1171884953826767,0.4395947725847014,-0.01527755998699486,799.4139194139194,792.1611721611722,800.2197802197802,801.025641025641,764.3589743589744,-0.203491,0.039429,0.994141,4.598236,-6.086121,-3.581390,1,1,1,1,1,35.000000
2024-10-22 14:26:38.571,-0.04959738960507135,-0.499025937847574,-0.5372231895729098,-0.3718472867466403,0.1055715277640574,-0.387884343714786,-0.2769014645524548,0.1647107510025215,0.6802974190834167,0.05909758233995197,0.3205648313759358,0.6391156547156382,0.3613918027177797,0.09512385913281167,0.3014377834827507,0.3658777275139112,0.2223213827393754,0.03373773569907243,0.1582920155290288,0.04312496977599638,801.8315018315019,794.5787545787546,796.5934065934066,800.6227106227107,595.1282051282052,-0.207458,0.038391,0.994690,4.538422,-6.691742,-3.566437,1,1,1,1,1,35.000000
2024-10-22 14:26:39.572,-0.006398130975628777,-0.6220091069518975,-0.4297786191441337,-0.09489078756614923,0.3610960736890615,-0.5462302519751804,-0.425011076386045,0.4403906262377625,1.075805313865921,0.1892923729161723,0.2037879052441421,1.104125227344529,0.5027111207806201,0.07299675199316516,0.1887267190136663,0.3007707954073858,0.2701633728309796,-0.05598343646581859,0.1279852146916911,-0.05241840082290929,806.6666666666667,804.2490842490843,800.2197802197802,793.7728937728938,854.6153846153846,-0.203552,0.037109,0.992737,4.560852,-7.409515,-3.506622,1,1,1,1,1,35.000000
2024-10-22 14:26:40.585,0.1188631779621085,-0.2046919258797816,-0.2933614592334746,0.076800774606505,0.4815168318914633,-0.1614829471830188,-0.2797956395267301,0.507957725964555,1.207642835163729,0.1836073244844425,0.2690409084909242,1.146123767838592,0.5142480762651361,0.1911096509014568,0.4367487838711138,0.4204582668743583,0.2015935083261357,-0.04168223347869229,0.3133425859321031,0.09403935251754994,792.1611721611722,795.7875457875458,801.4285714285714,793.7728937728938,598.7545787545788,-0.207031,0.035950,0.990906,4.366455,-6.400146,-3.962708,1,1,1,1,1,35.000000
