TimeStamp,Delta_TP9,Delta_AF7,Delta_AF8,Delta_TP10,Theta_TP9,Theta_AF7,Theta_AF8,Theta_TP10,Alpha_TP9,Alpha_AF7,Alpha_AF8,Alpha_TP10,Beta_TP9,Beta_AF7,Beta_AF8,Beta_TP10,Gamma_TP9,Gamma_AF7,Gamma_AF8,Gamma_TP10,RAW_TP9,RAW_AF7,RAW_AF8,RAW_TP10,AUX_RIGHT,Accelerometer_X,Accelerometer_Y,Accelerometer_Z,Gyro_X,Gyro_Y,Gyro_Z,HeadBandOn,HSI_TP9,HSI_AF7,HSI_AF8,HSI_TP10,Battery,Elements
2024-10-15 11:50:36.072,,,,,,,,,,,,,,,,,,,,,,,,,,,,,,,,,,,,,,/muse/event/connected Muse-19E7
2024-10-15 11:50:36.142,,,,,,,,,,,,,,,,,,,,,,,,,,,,,,,,,,,,,,/muse/elements/blink
2024-10-15 11:50:36.149,,,,,,,,,,,,,,,,,,,,,,,,,,,,,,,,,,,,,,/muse/elements/blink
2024-10-15 11:50:36.301,,,,,,,,,,,,,,,,,,,,,,,,,,,,,,,,,,,,,,/muse/elements/jaw_clench
2024-10-15 11:50:36.985,,,,,,,,,,,,,,,,,,,,,,,,,,,,,,,,,,,,,,/muse/elements/blink
2024-10-15 11:50:37.072,0.8732472168815322,0.6124130877898644,0.8611033909486872,0.5572603160341456,0.5713127452743788,-0.0331388590746919,0.08289658569184355,0.7482194473095843,0.6272420242637686,0.2305365557627115,0.3070351071930874,0.7342420266968535,0.9297241870646449,0.05097984366483299,-0.1147699697596308,0.7433409754270611,0.569972055856993,0.1197961335714982,0.2007803397817222,0.4812615127770149,1069.78021978022,806.6666666666667,806.6666666666667,919.0842490842491,790.1465201465202,-0.082825,0.005798,1.015076,5.151520,-6.287994,-4.000092,1,2,1,1,2,30.000000
2024-10-15 11:50:37.241,,,,,,,,,,,,,,,,,,,,,,,,,,,,,,,,,,,,,,/muse/elements/blink
2024-10-15 11:50:37.502,,,,,,,,,,,,,,,,,,,,,,,,,,,,,,,,,,,,,,/muse/elements/blink
2024-10-15 11:50:37.826,,,,,,,,,,,,,,,,,,,,,,,,,,,,,,,,,,,,,,/muse/elements/blink
2024-10-15 11:50:38.040,,,,,,,,,,,,,,,,,,,,,,,,,,,,,,,,,,,,,,/muse/elements/blink
2024-10-15 11:50:38.078,0.8764617011464287,0.7414346619363043,0.4136167996247575,0.8617504144932685,0.4696649457507237,0.4435939134158225,-0.1300063596462509,0.5739942169887714,0.9842156864611057,0.3964083645969494,0.2444537777416229,0.8340755702390099,0.7795080187725312,0.04862456566539299,-0.04600081558842565,0.4383252497297924,0.3945917888809129,0.1189055352450468,0.2250172326949992,0.2646575098729297,1212.014652014652,805.0549450549451,801.8315018315019,976.7032967032967,918.6813186813187,-0.083008,0.008179,1.018860,4.665527,-6.766510,-3.925323,1,1,1,1,1,30.000000
2024-10-15 11:50:38.211,,,,,,,,,,,,,,,,,,,,,,,,,,,,,,,,,,,,,,/muse/elements/blink
2024-10-15 11:50:38.639,,,,,,,,,,,,,,,,,,,,,,,,,,,,,,,,,,,,,,/muse/elements/blink
2024-10-15 11:50:38.830,,,,,,,,,,,,,,,,,,,,,,,,,,,,,,,,,,,,,,/muse/elements/blink
2024-10-15 11:50:39.077,0.8654965039128708,0.9557243400734723,0.5341003597837516,0.2178154717569907,0.5566516812732039,0.6303831168604305,0.05312506289878435,0.1956969287070926,0.8997446805962044,0.4539147777648604,0.04802929499775108,0.3121121972551772,0.747969711319809,-0.05883796761319368,-0.117497959680955,0.6383077841007864,0.3763697912177846,-0.144247026854668,0.09492437868558944,0.2833485897317702,1139.487179487179,801.8315018315019,804.6520146520147,952.1245421245421,742.1978021978023,-0.076904,0.005615,1.017212,4.583282,-7.372131,-4.007568,1,1,1,1,1,30.000000
2024-10-15 11:50:39.266,,,,,,,,,,,,,,,,,,,,,,,,,,,,,,,,,,,,,,/muse/elements/blink
2024-10-15 11:50:39.572,,,,,,,,,,,,,,,,,,,,,,,,,,,,,,,,,,,,,,/muse/elements/jaw_clench
2024-10-15 11:50:39.657,,,,,,,,,,,,,,,,,,,,,,,,,,,,,,,,,,,,,,/muse/elements/blink
2024-10-15 11:50:39.742,,,,,,,,,,,,,,,,,,,,,,,,,,,,,,,,,,,,,,/muse/elements/jaw_clench
2024-10-15 11:50:39.957,,,,,,,,,,,,,,,,,,,,,,,,,,,,,,,,,,,,,,/muse/elements/blink
2024-10-15 11:50:40.042,,,,,,,,,,,,,,,,,,,,,,,,,,,,,,,,,,,,,,/muse/elements/jaw_clench
2024-10-15 11:50:40.078,0.1318401325413599,0.4262042490367781,0.4548182121443798,0.1515119389950708,-0.01170642213126021,0.02195575406503728,-0.002069792009134796,0.1407506278611434,0.3482712525948066,-0.08474412385299747,0.1798522130831149,0.3438224847534943,0.5111612328328231,-0.08601780381720291,-0.112494220149169,0.6294466595562653,0.3146020111505852,-0.07667201225888021,0.009025865845864192,0.2969906617208709,1178.571428571429,832.4542124542124,878.3882783882784,956.959706959707,799.4139194139194,-0.040894,-0.018372,1.005127,4.583282,-24.374390,-2.609406,1,1,1,1,1,30.000000
2024-10-15 11:50:40.213,,,,,,,,,,,,,,,,,,,,,,,,,,,,,,,,,,,,,,/muse/elements/blink
2024-10-15 11:50:41.080,0.1170957715259038,0.02557554216520767,0.2704980939911646,0.01310735299270016,-0.05058339803252295,-0.03819820928431205,-0.123076094908592,0.04929185113196336,0.263453234345061,-0.2597194693401794,0.05730335351157103,0.1525730951709556,0.527631536804845,-0.009887173137564537,-0.1541445600223366,0.6034692833671838,0.2974646618239624,-0.05956888708607599,0.02187616578723859,0.3124088789023761,1166.483516483516,810.6959706959707,782.893772893773,1001.684981684982,902.967032967033,-0.051514,0.031250,1.010986,5.129089,-13.144226,-4.972076,1,1,1,1,1,30.000000
2024-10-15 11:50:41.406,,,,,,,,,,,,,,,,,,,,,,,,,,,,,,,,,,,,,,/muse/elements/blink
2024-10-15 11:50:42.080,0.1170957715259038,0.02557554216520767,0.2704980939911646,0.01310735299270016,-0.05058339803252295,-0.03819820928431205,-0.123076094908592,0.04929185113196336,0.263453234345061,-0.2597194693401794,0.05730335351157103,0.1525730951709556,0.527631536804845,-0.009887173137564537,-0.1541445600223366,0.6034692833671838,0.2974646618239624,-0.05956888708607599,0.02187616578723859,0.3124088789023761,1116.117216117216,904.5787545787546,1007.326007326007,909.0109890109891,760.7326007326008,-0.045410,0.033936,1.021057,6.317902,-8.830109,-0.844879,1,1,1,1,1,30.000000
2024-10-15 11:50:42.394,,,,,,,,,,,,,,,,,,,,,,,,,,,,,,,,,,,,,,/muse/elements/blink
2024-10-15 11:50:42.845,,,,,,,,,,,,,,,,,,,,,,,,,,,,,,,,,,,,,,/muse/elements/blink
2024-10-15 11:50:43.078,0.4720181649575911,0.02557554216520767,0.2704980939911646,0.01310735299270016,0.6586751449606868,-0.03819820928431205,-0.123076094908592,0.04929185113196336,0.7281314240133885,-0.2597194693401794,0.05730335351157103,0.1525730951709556,1.032987352169997,-0.009887173137564537,-0.1541445600223366,0.6034692833671838,1.157582036767061,-0.05956888708607599,0.02187616578723859,0.3124088789023761,1013.369963369963,768.3882783882784,608.021978021978,889.2673992673992,928.3516483516484,-0.172058,0.001099,0.990112,6.706696,-16.217194,-6.572113,1,1,1,1,1,30.000000
2024-10-15 11:50:43.227,,,,,,,,,,,,,,,,,,,,,,,,,,,,,,,,,,,,,,/muse/elements/blink
2024-10-15 11:50:43.440,,,,,,,,,,,,,,,,,,,,,,,,,,,,,,,,,,,,,,/muse/elements/jaw_clench
2024-10-15 11:50:43.933,,,,,,,,,,,,,,,,,,,,,,,,,,,,,,,,,,,,,,/muse/elements/jaw_clench
2024-10-15 11:50:44.073,0.4720181649575911,0.02557554216520767,0.2704980939911646,0.01310735299270016,0.6586751449606868,-0.03819820928431205,-0.123076094908592,0.04929185113196336,0.7281314240133885,-0.2597194693401794,0.05730335351157103,0.1525730951709556,1.032987352169997,-0.009887173137564537,-0.1541445600223366,0.6034692833671838,1.157582036767061,-0.05956888708607599,0.02187616578723859,0.3124088789023761,550.8058608058608,817.948717948718,847.3626373626374,688.6080586080586,557.6556776556777,-0.048462,-0.110535,1.040710,12.561035,-21.406097,-13.787231,1,1,1,2,1,30.000000
2024-10-15 11:50:44.468,,,,,,,,,,,,,,,,,,,,,,,,,,,,,,,,,,,,,,/muse/elements/blink
2024-10-15 11:50:44.830,,,,,,,,,,,,,,,,,,,,,,,,,,,,,,,,,,,,,,/muse/elements/blink
2024-10-15 11:50:44.979,,,,,,,,,,,,,,,,,,,,,,,,,,,,,,,,,,,,,,/muse/elements/jaw_clench
2024-10-15 11:50:45.066,,,,,,,,,,,,,,,,,,,,,,,,,,,,,,,,,,,,,,/muse/elements/blink
2024-10-15 11:50:45.079,0.4720181649575911,0.02557554216520767,0.2704980939911646,0.01310735299270016,0.6586751449606868,-0.03819820928431205,-0.123076094908592,0.04929185113196336,0.7281314240133885,-0.2597194693401794,0.05730335351157103,0.1525730951709556,1.032987352169997,-0.009887173137564537,-0.1541445600223366,0.6034692833671838,1.157582036767061,-0.05956888708607599,0.02187616578723859,0.3124088789023761,1216.849816849817,813.1135531135532,1094.358974358974,985.1648351648352,1113.699633699634,0.113831,0.047485,1.038513,8.575897,-2.190704,-10.033875,1,2,1,2,2,30.000000
2024-10-15 11:50:45.324,,,,,,,,,,,,,,,,,,,,,,,,,,,,,,,,,,,,,,/muse/elements/blink
2024-10-15 11:50:45.878,,,,,,,,,,,,,,,,,,,,,,,,,,,,,,,,,,,,,,/muse/elements/blink
2024-10-15 11:50:46.057,,,,,,,,,,,,,,,,,,,,,,,,,,,,,,,,,,,,,,/muse/elements/blink
2024-10-15 11:50:46.073,0.4720181649575911,1.014257361172887,0.2704980939911646,0.01310735299270016,0.6586751449606868,0.8459675608543928,-0.123076094908592,0.04929185113196336,0.7281314240133885,0.3260618579881857,0.05730335351157103,0.1525730951709556,1.032987352169997,-0.09059987051568262,-0.1541445600223366,0.6034692833671838,1.157582036767061,-0.1285780262895972,0.02187616578723859,0.3124088789023761,1150.3663003663,802.2344322344322,819.96336996337,956.5567765567766,897.3260073260074,0.033630,0.080688,1.011414,4.269257,-11.424561,-1.577606,1,2,1,1,2,30.000000
2024-10-15 11:50:46.481,,,,,,,,,,,,,,,,,,,,,,,,,,,,,,,,,,,,,,/muse/elements/blink
2024-10-15 11:50:47.073,0.6610281003697136,0.4398279566684634,0.2704980939911646,0.3523921379885355,0.2598471825023654,0.2635385494346253,-0.123076094908592,0.03890239626768933,0.6692289293444118,0.1619978755781916,0.05730335351157103,0.5277589689827582,1.154223652704979,-0.01087919280844206,-0.1541445600223366,0.5762374979244894,0.6647405755495641,-0.232868275890475,0.02187616578723859,0.697776869582282,1054.871794871795,781.2820512820513,835.2747252747253,909.8168498168499,1048.827838827839,0.061401,0.056580,1.007080,2.429962,-7.431946,-3.551483,1,1,1,1,1,30.000000
2024-10-15 11:50:47.166,,,,,,,,,,,,,,,,,,,,,,,,,,,,,,,,,,,,,,/muse/elements/blink
2024-10-15 11:50:47.614,,,,,,,,,,,,,,,,,,,,,,,,,,,,,,,,,,,,,,/muse/elements/blink
2024-10-15 11:50:48.079,0.3792895558966689,0.2977748377277049,0.2704980939911646,0.1614077740077713,0.3211312765117618,0.0254133577243169,-0.123076094908592,0.2769055538277983,0.7296519793451116,0.5209829764210137,0.05730335351157103,0.5938343715035521,0.8991307103387337,-0.02958557302516194,-0.1541445600223366,0.628687455942108,0.5421157094260933,-0.3135597381200077,0.02187616578723859,0.5203635408833571,1199.52380952381,740.989010989011,694.6520146520147,949.3040293040293,778.0586080586081,0.084900,0.054504,1.019836,4.942169,-8.172150,-3.671112,1,1,1,1,1,30.000000
2024-10-15 11:50:48.907,,,,,,,,,,,,,,,,,,,,,,,,,,,,,,,,,,,,,,/muse/elements/blink
2024-10-15 11:50:49.073,0.6846773057423841,0.951163117367673,0.2704980939911646,0.5747638447362103,0.7559361586736861,0.2632262987239317,-0.123076094908592,0.657378331529891,1.104290435389276,0.4484320327776071,0.05730335351157103,0.7936635767087272,0.8169367726768816,-0.05197284627296418,-0.1541445600223366,0.7161398601262058,0.5336239529865714,-0.2802170058138862,0.02187616578723859,0.5624130805641281,1195.897435897436,793.7728937728938,748.6446886446887,951.7216117216118,896.5201465201466,0.088623,0.046387,1.014038,4.770203,-7.372131,-4.269257,1,1,1,1,1,30.000000
2024-10-15 11:50:50.073,0.4337274290057143,0.7809931541927722,0.2704980939911646,0.316694777922972,0.648364427727224,0.01706539484520914,-0.123076094908592,0.5898484143019994,1.06290408841939,0.4259820646133889,0.05730335351157103,0.823765431092728,0.8288761388260926,0.01695776047969739,-0.1541445600223366,0.7186467587714455,0.5073192483423075,-0.1292981665657313,0.02187616578723859,0.5468121543278559,1144.322344322344,798.6080586080586,756.7032967032967,933.1868131868132,1048.827838827839,0.096069,0.042114,1.012512,4.605713,-7.641296,-4.269257,1,1,1,1,1,30.000000
2024-10-15 11:50:51.073,0.1395768355292745,0.1724790540717016,0.2704980939911646,0.1072910067698034,0.5468346951076544,0.02598258488083437,-0.123076094908592,0.3924311169568065,0.8664248449410152,0.326626736378641,0.05730335351157103,0.6672412989417724,0.9062019823822391,-0.1254965573863362,-0.1541445600223366,0.6105636757140928,0.4714144475598712,-0.09289881110510886,0.02187616578723859,0.4930410645271383,1076.227106227106,786.9230769230769,786.5201465201466,921.0989010989011,1087.106227106227,0.112122,0.047913,1.015869,4.523468,-8.052521,-4.545898,1,1,1,1,1,30.000000
2024-10-15 11:50:51.642,,,,,,,,,,,,,,,,,,,,,,,,,,,,,,,,,,,,,,/muse/elements/blink
2024-10-15 11:50:51.982,,,,,,,,,,,,,,,,,,,,,,,,,,,,,,,,,,,,,,/muse/elements/blink
2024-10-15 11:50:52.078,0.7412497441200133,0.3121196357150452,0.7058452441891361,0.5472291137422458,0.5806333182674503,0.1941501951614017,0.3320004339144731,0.3102584698083126,0.5382219831830066,0.5728041397324348,0.1213875590444141,0.5875054092642474,0.4669045230800807,0.02071778857470534,-0.03621872691293082,0.4164412648790881,0.4498745373982466,-0.0251865198106591,0.002189308802586671,0.1711394773750926,1189.047619047619,805.0549450549451,811.9047619047619,952.1245421245421,694.2490842490843,0.118225,0.030762,1.005981,3.573914,-6.773987,-4.358978,1,1,1,1,1,30.000000
2024-10-15 11:50:52.151,,,,,,,,,,,,,,,,,,,,,,,,,,,,,,,,,,,,,,/muse/elements/blink
2024-10-15 11:50:52.386,,,,,,,,,,,,,,,,,,,,,,,,,,,,,,,,,,,,,,/muse/elements/blink
2024-10-15 11:50:52.600,,,,,,,,,,,,,,,,,,,,,,,,,,,,,,,,,,,,,,/muse/elements/jaw_clench
2024-10-15 11:50:52.644,,,,,,,,,,,,,,,,,,,,,,,,,,,,,,,,,,,,,,/muse/elements/blink
2024-10-15 11:50:53.082,0.9222056335457508,0.6165134598951288,1.466794750763345,1.042238508491401,0.7600415986379342,0.3614980739681967,1.279316341750828,0.6601833550387507,1.021323481585973,0.5442101570150835,0.5538753353823221,0.9296910032739116,1.336252869067249,0.1584566177477917,0.1356263000577732,1.128323635601124,1.295862599582852,0.0934688885934896,0.1700584809029262,1.134232769946084,1033.516483516484,800.6227106227107,797.3992673992674,867.5091575091575,686.996336996337,0.128418,0.041809,1.011108,5.136566,-6.220703,-4.545898,1,1,1,1,1,25.000000
2024-10-15 11:50:54.072,0.771389861884977,0.5421457961701234,1.466794750763345,0.7356637932197054,0.6577217529906644,0.3736144056550094,1.279316341750828,0.3572123392420914,1.032027895249859,0.4506819660379272,0.5538753353823221,0.9385352281008131,1.170318686836361,0.1182776262942462,0.1356263000577732,0.9713768873512308,1.177166262260763,0.1403623614968547,0.1700584809029262,0.9874393855406666,1117.728937728938,805.4578754578755,786.5201465201466,923.1135531135532,1004.102564102564,0.126831,0.046143,1.008911,5.203857,-6.871185,-3.775787,1,1,1,1,1,25.000000
2024-10-15 11:50:54.897,,,,,,,,,,,,,,,,,,,,,,,,,,,,,,,,,,,,,,/muse/elements/blink
2024-10-15 11:50:55.072,0.3765333463045719,0.5958260055583626,0.887725231343543,0.572046965797523,0.3485614254011722,0.05710157990178081,0.4804997241916894,-0.03720708403930889,0.6380536959736774,0.5913556576238933,0.5355996451432697,0.5135201152260611,0.8078936670084251,0.1055179737973138,0.2057583297850577,0.9087932430678715,0.8679978095443751,0.1035947306992206,0.03847583896218049,0.7943373527197444,1195.091575091575,802.6373626373627,807.4725274725275,976.3003663003664,788.1318681318681,0.115356,0.047302,1.010986,4.022522,-5.906677,-4.979553,1,1,1,1,1,25.000000
2024-10-15 11:50:55.193,,,,,,,,,,,,,,,,,,,,,,,,,,,,,,,,,,,,,,/muse/elements/blink
2024-10-15 11:50:55.405,,,,,,,,,,,,,,,,,,,,,,,,,,,,,,,,,,,,,,/muse/elements/blink
2024-10-15 11:50:56.078,0.3765333463045719,0.8022242051294045,0.9866002577519172,0.6171350702694295,0.3485614254011722,0.410324051968323,0.3208105256061961,-0.03604991493658041,0.6380536959736774,0.428078869813408,0.5229217337715252,0.415766070631627,0.8078936670084251,0.1613466798864019,-0.02300461471892964,0.913726313784803,0.8679978095443751,0.05777880642544209,0.1622185678233493,0.7756338097037954,936.007326007326,804.2490842490843,778.4615384615385,855.4212454212454,561.6849816849817,0.109314,0.040771,1.007690,4.142151,-7.020721,-5.039368,1,1,1,1,1,25.000000
2024-10-15 11:50:56.217,,,,,,,,,,,,,,,,,,,,,,,,,,,,,,,,,,,,,,/muse/elements/blink
2024-10-15 11:50:57.072,0.3765333463045719,0.3623938345147432,1.173568659104352,0.8884650146562019,0.3485614254011722,0.1686800220940948,0.5462111820275786,0.6214226897610229,0.6380536959736774,0.04976708010427817,0.3667829661590867,0.5025727003997044,0.8078936670084251,0.001863812077499797,-0.166072310426732,0.4894576370316845,0.8679978095443751,0.03556190041699584,0.2675044690731077,0.5713239968457301,1175.347985347985,788.9377289377289,792.967032967033,978.3150183150184,1014.981684981685,0.112549,0.032837,1.013672,4.044952,-7.873077,-5.540314,1,1,1,1,1,25.000000
2024-10-15 11:50:57.333,,,,,,,,,,,,,,,,,,,,,,,,,,,,,,,,,,,,,,/muse/elements/blink
2024-10-15 11:50:57.846,,,,,,,,,,,,,,,,,,,,,,,,,,,,,,,,,,,,,,/muse/elements/blink
2024-10-15 11:50:58.081,0.6731709877236109,0.6582424130574016,1.010944549999447,0.9595613675558533,0.7906284179012736,0.2204145555956086,0.6281999141444624,0.6468359645758546,0.9810647813641897,0.5861210799232079,0.7283996521648962,0.2255414727636614,0.67135617496915,0.1901557589253747,0.1014964768301291,0.4809094984212651,0.6465098537803936,-0.0783863707785022,-0.1089611840468895,0.4927182546508962,1101.208791208791,798.6080586080586,816.3369963369963,921.5018315018315,817.948717948718,0.109131,0.037109,1.014832,5.233765,-5.532837,-1.495361,1,1,1,1,1,25.000000
2024-10-15 11:50:58.593,,,,,,,,,,,,,,,,,,,,,,,,,,,,,,,,,,,,,,/muse/elements/blink
2024-10-15 11:50:58.763,,,,,,,,,,,,,,,,,,,,,,,,,,,,,,,,,,,,,,/muse/elements/blink
2024-10-15 11:50:59.073,0.7375324376319785,0.9110004298034712,1.088992962721028,0.9065745332644759,0.7772258257666731,0.3518339683643154,0.6119974033408706,0.7085524574512589,1.040247832177924,0.581281887132831,0.7433421742435983,0.8836055921993874,0.6288784905395522,0.1974095554238681,0.09761123484092482,0.5698087185958267,0.6230656189843969,-0.07792872098718844,-0.0692583534789018,0.4257067013923697,1161.648351648352,797.3992673992674,799.4139194139194,946.8864468864469,1189.047619047619,0.122742,0.035767,1.011169,4.433746,-10.340424,-4.575806,1,1,1,1,1,25.000000
2024-10-15 11:51:00.081,0.7858710963382946,0.6987191925579727,0.7438316033083607,0.142869176667697,0.6534361493445527,0.137405546434003,0.1163832008925023,-0.4125490690421856,0.9709548168092286,-0.100328257739971,0.0495657583496152,0.2719867296485333,0.5505456371490782,-0.096618860275117,-0.008708178647587533,0.6014214787508537,0.5629406908415021,-0.1144340520436421,-0.01079492012210421,0.4780619127220892,1169.70695970696,796.1904761904763,797.3992673992674,950.1098901098901,1064.139194139194,0.131592,0.035339,1.011414,4.381409,-5.861816,-4.314117,1,1,1,1,1,25.000000
2024-10-15 11:51:00.085,,,,,,,,,,,,,,,,,,,,,,,,,,,,,,,,,,,,,,/muse/elements/blink
2024-10-15 11:51:00.578,,,,,,,,,,,,,,,,,,,,,,,,,,,,,,,,,,,,,,/muse/elements/blink
2024-10-15 11:51:00.750,,,,,,,,,,,,,,,,,,,,,,,,,,,,,,,,,,,,,,/muse/elements/blink
2024-10-15 11:51:01.082,0.3835278999358372,-0.06417981144525781,-0.3344701114853236,-0.06920002445970455,0.2651057101366499,-0.3115538910973272,-0.3755979355296522,-0.09353309598608589,0.7080091022634005,0.005143215887272766,0.1968437003518757,0.5617498697783563,0.7446308035993566,-0.1456445554065926,0.1112218610981331,0.5050606871481039,0.5411686417756491,-0.1828776297272899,0.05577093341869373,0.4558744427069473,580.6227106227107,799.4139194139194,782.0879120879121,707.1428571428571,668.0586080586081,0.125488,0.038147,1.010803,4.987030,-7.050629,-4.089813,1,1,1,1,1,25.000000
2024-10-15 11:51:01.493,,,,,,,,,,,,,,,,,,,,,,,,,,,,,,,,,,,,,,/muse/elements/blink
2024-10-15 11:51:01.882,,,,,,,,,,,,,,,,,,,,,,,,,,,,,,,,,,,,,,/muse/elements/blink
2024-10-15 11:51:02.083,0.4788190197074968,-0.347902197561568,0.1891617466618477,-0.002612026354201246,0.3653443845239543,-0.1833348877681056,-0.2955862520437176,0.1363062849821201,0.8941527687498249,0.03373315607058257,0.2614852828663173,0.5935614972596823,0.7641296346330388,-0.05943449715542514,0.07284070080269249,0.5664561390962796,0.5979273046584955,-0.1195153137955139,-0.041157785186025,0.4437435862370211,684.5787545787546,795.3846153846154,799.8168498168499,740.989010989011,611.2454212454213,0.129639,0.033630,1.012390,4.650574,-7.349701,-3.962708,1,1,1,1,1,25.000000
2024-10-15 11:51:02.606,,,,,,,,,,,,,,,,,,,,,,,,,,,,,,,,,,,,,,/muse/elements/blink
2024-10-15 11:51:03.072,0.4461649706548484,-0.4738700134789824,0.4660045238087344,0.2240707510019896,0.3583586725185006,-0.4829162427493031,0.08178931100926465,0.02532647399432074,0.9133628388409418,0.2104476247380907,0.2218745682107649,0.5674060995901653,0.8110345734581939,-0.04549821080656424,-0.05266077656237229,0.5527769632394626,0.794301175733769,-0.2324706471212212,-0.0577408517715185,0.4808920011148518,1166.886446886447,799.4139194139194,802.6373626373627,944.4688644688645,910.6227106227107,0.136414,0.035522,1.010986,4.770203,-7.581482,-6.362762,1,1,1,1,1,30.000000
2024-10-15 11:51:04.072,0.573252272250696,-0.1961271695273803,0.8484032293684788,0.3312840970929111,0.5327869597699181,-0.2500989387621482,0.3970171395635193,0.2782227008819196,0.8860752257998965,0.2774700686634345,0.4493665093555299,0.5338249939717482,0.9263867935405165,0.02302899354709561,-0.002980028247793337,0.5584065042676996,0.5351934744746145,-0.2319250267667274,-0.02791498104039471,0.5050366072034371,908.6080586080586,795.3846153846154,786.5201465201466,823.992673992674,698.2783882783883,0.155701,0.036133,1.014404,5.046844,-7.439423,-3.715973,1,1,1,1,1,30.000000
2024-10-15 11:51:05.072,0.6573777201562526,0.4536443986291364,0.7665365355596396,0.4541111508549498,0.5281959569309326,0.2756875248485921,0.2809527657274939,0.3204370757104015,0.8560276928889391,0.3926402052595694,0.4344109255411084,0.5774371247158524,0.8806860693919522,0.2195433378628277,0.1794267443641337,0.3821973091029232,0.5879218351551907,0.284004844700712,-0.1092522938275163,0.5900310765745104,1006.520146520147,805.8608058608058,767.985347985348,888.8644688644689,1307.106227106227,0.146912,0.033813,1.004150,4.284210,-7.648773,-5.794525,1,1,1,1,1,30.000000
2024-10-15 11:51:06.072,0.3843870444727829,0.7998039014423587,0.4667151834976724,0.2139151347476299,0.2462495508236002,0.2756582679933149,-0.2144999966011714,0.24868718148293,0.4225816748130192,0.366422994437113,0.216378220120518,0.4141686925939285,0.7753944806239375,0.2680741349358592,0.05680490615407634,0.5301714418747205,0.6521258911729425,0.393157501418784,0.1250267161373716,0.7169672741427461,1094.358974358974,801.4285714285714,811.5018315018315,917.0695970695971,797.8021978021978,0.145996,0.016113,1.008545,4.673004,-5.316010,-3.237457,1,1,1,1,1,30.000000
2024-10-15 11:51:06.384,,,,,,,,,,,,,,,,,,,,,,,,,,,,,,,,,,,,,,/muse/elements/jaw_clench
2024-10-15 11:51:06.575,,,,,,,,,,,,,,,,,,,,,,,,,,,,,,,,,,,,,,/muse/elements/jaw_clench
2024-10-15 11:51:06.875,,,,,,,,,,,,,,,,,,,,,,,,,,,,,,,,,,,,,,/muse/elements/blink
2024-10-15 11:51:07.072,0.860017832126179,0.4284377927576716,0.4054991701763768,0.7031666853239646,0.8952686993100014,0.1934186911914226,0.3196154569042964,0.992437464876945,1.000032186706156,0.2729462893804088,0.5139936294797485,1.146514587314829,0.780711741707535,0.0460734218192945,-0.004392006007863154,0.8850355594162307,0.9726313715648724,-0.01491818538684183,0.01775998257649119,0.6326645598471476,1188.644688644689,798.2051282051282,805.8608058608058,966.2271062271062,1063.736263736264,0.124329,0.037964,1.007202,5.966492,-6.766510,0.755157,1,1,1,1,1,30.000000
2024-10-15 11:51:07.088,,,,,,,,,,,,,,,,,,,,,,,,,,,,,,,,,,,,,,/muse/elements/blink
2024-10-15 11:51:07.299,,,,,,,,,,,,,,,,,,,,,,,,,,,,,,,,,,,,,,/muse/elements/blink
2024-10-15 11:51:07.471,,,,,,,,,,,,,,,,,,,,,,,,,,,,,,,,,,,,,,/muse/elements/blink
2024-10-15 11:51:07.704,,,,,,,,,,,,,,,,,,,,,,,,,,,,,,,,,,,,,,/muse/elements/blink
2024-10-15 11:51:07.980,,,,,,,,,,,,,,,,,,,,,,,,,,,,,,,,,,,,,,/muse/elements/blink
2024-10-15 11:51:08.082,0.02096136689801307,0.6096056176625728,0.6198646954527199,0.03683868239579759,0.06197334781485403,-0.07208992371831942,0.3683978419608197,-0.002171021072828135,0.4779377186021126,0.1758043185511061,0.2456156144528533,0.491312041909166,0.6509048840458275,-0.09063564784384749,0.0497276081771992,0.6184875229622825,0.5908500453435118,-0.06130159657390157,0.09239880575126169,0.343751793567159,712.7838827838829,793.7728937728938,789.3406593406594,755.8974358974359,630.5860805860806,0.119751,0.036560,1.011658,4.643097,-6.011353,-5.473022,1,1,1,1,1,30.000000
2024-10-15 11:51:08.669,,,,,,,,,,,,,,,,,,,,,,,,,,,,,,,,,,,,,,/muse/elements/blink
2024-10-15 11:51:09.072,0.553195465075084,0.04947289054270152,0.3904841065506799,0.4073380015571461,0.2383545240704519,0.01656932987414119,-0.164917522622898,0.1419931868563777,0.6462629045047916,0.1224788429687726,0.2649976642349111,0.5191241018374212,0.7561434780799525,-0.08529661462823446,-0.0865563878550588,0.5523643119994897,0.7198616423407884,-0.02246492817112583,0.1247639193031556,0.465129160840861,1218.461538461539,796.5934065934066,807.0695970695971,963.4065934065934,1057.692307692308,0.114502,0.025879,1.016907,3.424377,-6.220703,-6.527252,1,1,1,1,1,30.000000
2024-10-15 11:51:09.095,,,,,,,,,,,,,,,,,,,,,,,,,,,,,,,,,,,,,,/muse/elements/blink
2024-10-15 11:51:09.418,,,,,,,,,,,,,,,,,,,,,,,,,,,,,,,,,,,,,,/muse/elements/blink
2024-10-15 11:51:09.716,,,,,,,,,,,,,,,,,,,,,,,,,,,,,,,,,,,,,,/muse/elements/blink
2024-10-15 11:51:09.908,,,,,,,,,,,,,,,,,,,,,,,,,,,,,,,,,,,,,,/muse/elements/blink
2024-10-15 11:51:10.080,1.100811506710117,0.02652244504553743,0.3640821453726736,0.6732799270227954,0.7744062582111345,0.08728670705234541,0.2192139086381673,0.2786049146047578,1.269568027156241,0.2561516752481726,0.3156204485180604,0.1099593911419376,0.9577793229589782,-0.08860149145082245,-0.1314236086494898,0.457345130406557,0.8450275806776744,-0.05256745660661574,-0.05364696011741726,0.5696684032187486,962.1978021978023,803.040293040293,806.2637362637363,856.6300366300367,741.7948717948718,0.099548,0.026672,1.014954,5.286102,-8.299255,-2.243042,1,1,1,1,1,30.000000
2024-10-15 11:51:10.230,,,,,,,,,,,,,,,,,,,,,,,,,,,,,,,,,,,,,,/muse/elements/blink
2024-10-15 11:51:11.072,1.280922378236083,0.3004244509020246,0.4204088186221902,-0.1430710327851902,0.9894345279013049,0.01676388594133665,0.4088758172536797,0.4351504021407647,1.269568027156241,0.1903673281379547,0.3334998413351085,0.6702193435721867,1.092512031524321,-0.09549241850012379,-0.1452211553600505,0.5619966123181254,0.9700467739085434,-0.1458574916573045,-0.08775137709006316,0.5941063137114219,1076.630036630037,805.4578754578755,801.8315018315019,902.967032967033,1178.974358974359,0.117615,0.019836,1.020142,4.687958,-7.731018,-4.530945,1,1,1,1,1,30.000000
2024-10-15 11:51:11.261,,,,,,,,,,,,,,,,,,,,,,,,,,,,,,,,,,,,,,/muse/elements/blink
2024-10-15 11:51:11.882,,,,,,,,,,,,,,,,,,,,,,,,,,,,,,,,,,,,,,/muse/elements/blink
2024-10-15 11:51:12.072,0.08033289692296972,0.0469229954436906,-0.04203288540821497,-0.07646417496859594,0.3922596015800227,-0.1836266882011678,-0.0918260784664876,0.2323391676485845,0.6013990178790116,0.1150868734497624,0.1359894832418294,0.7201879873012071,0.5126457130613354,-0.06858948355575382,-0.1766146856576013,0.3900244012147279,0.3424134430298559,-0.1456572700933003,-0.06736335151341689,0.4744196435390249,1170.10989010989,798.6080586080586,798.6080586080586,944.8717948717949,1002.087912087912,0.108948,0.019775,1.015808,4.329071,-7.170258,-4.852448,1,1,1,1,1,30.000000
2024-10-15 11:51:12.094,,,,,,,,,,,,,,,,,,,,,,,,,,,,,,,,,,,,,,/muse/elements/blink
2024-10-15 11:51:12.244,,,,,,,,,,,,,,,,,,,,,,,,,,,,,,,,,,,,,,/muse/elements/blink
2024-10-15 11:51:12.694,,,,,,,,,,,,,,,,,,,,,,,,,,,,,,,,,,,,,,/muse/elements/blink
2024-10-15 11:51:12.973,,,,,,,,,,,,,,,,,,,,,,,,,,,,,,,,,,,,,,/muse/elements/blink
2024-10-15 11:51:13.081,0.5804832742638051,0.06555840417147667,0.4080574525544324,0.3773854026991841,0.3478355914574153,0.02668123067475985,-0.05927572198213733,0.04684374230716804,0.6841702194280472,0.1626757847014619,0.4195008340157684,0.4607621780726999,0.6088664284031489,-0.1146766454634389,-0.1078744625187293,0.2965211687547559,0.4760328477399716,-0.1494628415511526,-0.0217099087991468,0.3239363253128991,840.5128205128206,794.981684981685,801.025641025641,805.0549450549451,429.9267399267399,0.098572,0.013672,1.015137,4.695435,-7.461853,-4.037476,1,1,1,1,1,30.000000
2024-10-15 11:51:13.378,,,,,,,,,,,,,,,,,,,,,,,,,,,,,,,,,,,,,,/muse/elements/blink
2024-10-15 11:51:13.911,,,,,,,,,,,,,,,,,,,,,,,,,,,,,,,,,,,,,,/muse/elements/blink
2024-10-15 11:51:14.078,0.8107564774818393,-0.05565733971210145,0.560220349877986,0.5813778001852672,0.5615110609968369,0.1390481273012662,0.2311869744233416,0.1662871675689079,0.5793931870881147,0.3005207688329605,0.4580394180265763,0.3427877512833135,0.6807765654064278,-0.02850605811826819,0.02383708546414733,0.2822276294432377,0.5831839055087558,-0.152174800921737,-0.0004579470530522795,0.2914421568113815,977.1062271062272,805.8608058608058,794.5787545787546,869.92673992674,1006.117216117216,0.104980,0.015930,1.018677,3.626251,-7.102966,-5.585175,1,1,1,1,1,30.000000
2024-10-15 11:51:14.785,,,,,,,,,,,,,,,,,,,,,,,,,,,,,,,,,,,,,,/muse/elements/blink
2024-10-15 11:51:15.079,0.8107564774818393,-0.3013872031465894,0.09280892654794852,0.7680288590902099,0.5615110609968369,0.07049360095132698,-0.1141082629254515,0.5633154263779113,0.5793931870881147,0.3799694525446108,0.3872422023212533,0.8529651899153271,0.6807765654064278,-0.05101541163986976,0.007565654187364424,0.4220218624322034,0.5831839055087558,-0.1232247266369346,-0.02840382435676959,0.5060938273097519,680.952380952381,788.1318681318681,790.1465201465202,761.1355311355312,431.5384615384615,0.103699,0.015137,1.016968,5.031891,-7.529144,-3.820648,1,1,1,1,1,30.000000
2024-10-15 11:51:15.127,,,,,,,,,,,,,,,,,,,,,,,,,,,,,,,,,,,,,,/muse/elements/blink
2024-10-15 11:51:15.297,,,,,,,,,,,,,,,,,,,,,,,,,,,,,,,,,,,,,,/muse/elements/blink
2024-10-15 11:51:15.534,,,,,,,,,,,,,,,,,,,,,,,,,,,,,,,,,,,,,,/muse/elements/blink
2024-10-15 11:51:16.072,0.8107564774818393,-0.2005535290718625,0.3821054725713248,0.7680288590902099,0.5615110609968369,-0.002792509384255249,0.07866425156179251,0.5633154263779113,0.5793931870881147,0.4958380664311756,0.5649782542119363,0.8529651899153271,0.6807765654064278,0.02181078566091086,-0.0566335571401959,0.4220218624322034,0.5831839055087558,0.08075182166206943,0.07287184459681945,0.5060938273097519,761.941391941392,801.4285714285714,791.7582417582418,772.4175824175825,510.9157509157509,0.099060,0.010986,1.018188,5.248718,-6.459961,-4.284210,1,1,1,1,1,30.000000
2024-10-15 11:51:16.236,,,,,,,,,,,,,,,,,,,,,,,,,,,,,,,,,,,,,,/muse/elements/blink
2024-10-15 11:51:16.988,,,,,,,,,,,,,,,,,,,,,,,,,,,,,,,,,,,,,,/muse/elements/blink
2024-10-15 11:51:17.072,0.2687817474925469,-0.2267576094719297,0.02792162880865867,0.1584047201393455,0.5421193199750025,-0.1485452676859231,0.08592078133114528,0.5522918153921808,1.109520187787632,0.3620590123180262,0.4011034025382941,0.7945281276553281,0.6539727437393689,-0.08808756924593597,-0.01104414916265323,0.8565319124287389,0.6274003590701686,-0.04007703161178318,0.01542065127728904,0.6055977374593556,890.4761904761905,789.7435897435897,796.1904761904763,851.3919413919414,1216.446886446887,0.122498,0.013428,1.012329,4.844971,-7.835693,-4.762726,1,1,1,1,1,30.000000
2024-10-15 11:51:17.462,,,,,,,,,,,,,,,,,,,,,,,,,,,,,,,,,,,,,,/muse/elements/blink
2024-10-15 11:51:18.084,0.6335855762981276,-0.01752624411273251,-0.01933546913962025,0.3767149471395033,0.4140377883560549,-0.1005398468322648,-0.05927590717190043,0.4132682374396719,1.081802117132211,0.447133516057913,0.2717881309258074,0.7871234887052568,0.5903284234889876,-0.03502939320577921,0.08491545554323418,0.7419910135277341,0.4736499396752898,-0.05433605000228773,0.07783808542065893,0.4958315327624296,580.6227106227107,787.7289377289378,791.3553113553114,715.6043956043957,696.6666666666667,0.114868,0.011780,1.018005,4.224396,-7.760925,-5.742188,1,1,1,1,1,30.000000
2024-10-15 11:51:18.969,,,,,,,,,,,,,,,,,,,,,,,,,,,,,,,,,,,,,,/muse/elements/blink
2024-10-15 11:51:19.072,0.5837986186986642,0.7693700077677156,0.4125104920627488,0.5909422156268586,0.5355051633862046,0.1645953849016857,-0.1652919636052098,0.4853222929145612,0.5437120182435633,0.3618683873049494,0.2071629583227284,0.5213974811525837,0.6867308498413264,-0.05008146467733943,0.01382659221321554,0.4910011533633402,0.4561333190974639,-0.007814924486082881,0.130801654257995,0.3265837430302072,700.2930402930403,797.3992673992674,782.0879120879121,734.9450549450549,606.4102564102565,0.119690,0.006653,1.012207,5.039368,-6.220703,1.360779,1,1,1,1,1,30.000000
2024-10-15 11:51:19.375,,,,,,,,,,,,,,,,,,,,,,,,,,,,,,,,,,,,,,/muse/elements/blink
2024-10-15 11:51:20.012,,,,,,,,,,,,,,,,,,,,,,,,,,,,,,,,,,,,,,/muse/elements/blink
2024-10-15 11:51:20.072,0.1348728644416149,0.41855397669306,0.6938101677919272,0.345084885978475,0.4979768606236601,0.1819332729879936,0.03699873062552375,0.6205217617501236,0.6689779386034914,0.4381563889248202,0.4630388307840945,0.7669288358883984,0.90767478442779,0.03235674410480899,0.01311128277773346,0.7526232131310542,0.7003592747499043,-0.1000612995069247,0.1650095328161391,0.4971600111595917,799.4139194139194,789.3406593406594,803.040293040293,820.3663003663004,1020.622710622711,0.131897,0.016174,1.016479,3.469238,-7.902985,-7.529144,1,1,1,1,1,30.000000
2024-10-15 11:51:20.288,,,,,,,,,,,,,,,,,,,,,,,,,,,,,,,,,,,,,,/muse/elements/blink
2024-10-15 11:51:21.078,0.3485452770188266,0.02003451277884,0.4021225306204706,0.4009485747838096,0.5292351329133619,0.02087639485195459,0.08503778802909853,0.5231063757060402,0.8246134889336189,0.4077519952883191,0.5123754742990118,0.7933081680498915,0.8729863360143028,0.06500379756291877,-0.06918046937509489,0.6363784900603481,0.609258381696349,-0.03779427974852519,0.1481115526866587,0.4694510127015586,523.4065934065934,800.6227106227107,803.040293040293,682.967032967033,469.8168498168498,0.116638,0.004456,1.013000,3.357086,-6.459961,-5.547791,1,1,1,1,1,30.000000
2024-10-15 11:51:21.422,,,,,,,,,,,,,,,,,,,,,,,,,,,,,,,,,,,,,,/muse/elements/blink
2024-10-15 11:51:21.720,,,,,,,,,,,,,,,,,,,,,,,,,,,,,,,,,,,,,,/muse/elements/blink
2024-10-15 11:51:22.078,0.382228549950367,0.08309913824322995,0.261019468713595,0.6187660107955205,0.4079210756631075,-0.05846094158050983,-0.113764750761116,0.367864403436277,0.7832109758982049,0.1535746363111762,0.3599321107533649,0.6626514091039799,0.8160559744942861,-0.04616735867760809,0.1134052654189551,0.5849573283073489,0.5022390237016114,-0.08351705201112036,0.02180137444395546,0.4155443735842983,593.919413919414,794.981684981685,779.6703296703297,681.3553113553114,629.3772893772893,0.130005,0.005615,1.017151,4.441223,-6.945953,-3.723450,1,1,1,1,1,30.000000
2024-10-15 11:51:22.347,,,,,,,,,,,,,,,,,,,,,,,,,,,,,,,,,,,,,,/muse/elements/blink
2024-10-15 11:51:22.648,,,,,,,,,,,,,,,,,,,,,,,,,,,,,,,,,,,,,,/muse/elements/blink
2024-10-15 11:51:23.072,0.4332845445382759,0.4743834368999681,0.104409563075517,0.772709757446954,0.4499292590740281,0.01401605421413562,-0.1225950697159596,0.3144190001661486,0.4629482464445175,0.1792237847488926,0.2870351153633672,0.4855322656038082,0.7724901724510633,-0.03088566878261082,0.04330240577578985,0.680941290829442,0.5303159805923406,-0.08869253222011955,0.1117556552626942,0.3763831467919785,736.1538461538462,782.4908424908425,780.8791208791209,775.6410256410256,1225.311355311355,0.118103,0.013794,1.016724,5.749664,-6.497345,-1.196289,1,1,1,1,1,30.000000
2024-10-15 11:51:24.055,,,,,,,,,,,,,,,,,,,,,,,,,,,,,,,,,,,,,,/muse/elements/blink
2024-10-15 11:51:24.072,0.5430057218996225,0.4439875397870651,0.09061346987924092,0.1727521927199674,0.3709988026211118,-0.1136388679227023,-0.1643095576232358,0.452461580537815,0.727800955203732,0.07051967528636721,0.2629389488998357,0.531920520896883,0.7971133179897775,-0.05848671663353697,-0.07268487423892711,0.7799733432482251,0.3433908999429248,-0.1568347329553323,0.06671533957222713,0.4501428964610399,476.6666666666667,785.3113553113553,795.3846153846154,674.5054945054945,531.8681318681319,0.129517,0.014526,1.013062,4.344025,-6.108551,-5.316010,1,1,1,1,1,30.000000
2024-10-15 11:51:24.837,,,,,,,,,,,,,,,,,,,,,,,,,,,,,,,,,,,,,,/muse/elements/blink
2024-10-15 11:51:25.073,0.3911745812080619,0.1679088745737394,0.5088924770809017,0.3542748685907776,0.4415409335122807,-0.01252038915847245,0.04854555442061217,0.5895441626344348,0.8195909134698126,-0.02532152208983925,0.2186202231189263,0.8064862799440368,0.7311979858195434,-0.03227579266955813,-0.0344154334566343,0.775706771410509,0.4458857474151964,-0.1479168614461384,0.02927685734884761,0.4160748682483821,584.2490842490843,807.0695970695971,806.2637362637363,709.5604395604396,540.7326007326008,0.115479,0.020386,1.016235,5.330963,-5.988922,-2.886047,1,1,1,1,1,30.000000
2024-10-15 11:51:25.483,,,,,,,,,,,,,,,,,,,,,,,,,,,,,,,,,,,,,,/muse/elements/blink
2024-10-15 11:51:25.654,,,,,,,,,,,,,,,,,,,,,,,,,,,,,,,,,,,,,,/muse/elements/blink
2024-10-15 11:51:26.072,0.3252525126191712,0.4552657208160986,0.6830162117040564,0.4908469652986354,0.3740022491310923,0.06031104351380227,-0.06156334329686408,0.6172763793018934,0.5723147139290712,0.1355810762502329,0.1280784694497835,0.7622285413074423,0.709221165695981,-0.05736818834823358,0.002591863552295928,0.7817640318291477,0.536051621428983,-0.08539595865350411,0.03510760972721573,0.3342831306104448,711.1721611721612,796.996336996337,768.7912087912088,749.4505494505495,1125.787545787546,0.123779,0.011414,1.014099,4.792633,-6.736603,-3.947754,1,1,1,1,1,30.000000
2024-10-15 11:51:26.081,,,,,,,,,,,,,,,,,,,,,,,,,,,,,,,,,,,,,,/muse/elements/blink
2024-10-15 11:51:27.080,0.3252525126191712,0.3920088742500037,0.4384484453155849,0.4908469652986354,0.3740022491310923,0.01169779796131176,0.1271511854405692,0.6172763793018934,0.5723147139290712,0.1847279750856042,0.4501575608313357,0.7622285413074423,0.709221165695981,-0.1022259483793667,0.09667325414939085,0.7817640318291477,0.536051621428983,-0.1347717453718616,0.1655706679191038,0.3342831306104448,492.7838827838828,809.0842490842491,778.0586080586081,666.0439560439561,527.8388278388279,0.116699,0.012451,1.008545,4.575806,-6.459961,-4.972076,1,1,1,1,1,30.000000
2024-10-15 11:51:28.081,0.2061447384381547,0.3374637733182161,0.197701469692746,0.1901495076699985,0.02383131148207981,0.01959750705677163,0.0350454526637432,0.08201504934599836,0.4793616739869527,0.1507162100276673,0.4305927886191933,0.4898857007942008,0.7841309517843599,0.005881726093658715,0.03478155156201401,0.6353031100666345,0.3954909044834771,-0.05276278799092192,0.1211634421508198,0.4327247848775921,582.2344322344322,788.5347985347986,782.4908424908425,700.6959706959707,503.6630036630037,0.121399,0.014587,1.013611,4.717865,-8.089905,-3.843079,1,1,1,1,1,30.000000
2024-10-15 11:51:28.809,,,,,,,,,,,,,,,,,,,,,,,,,,,,,,,,,,,,,,/muse/elements/blink
2024-10-15 11:51:29.045,,,,,,,,,,,,,,,,,,,,,,,,,,,,,,,,,,,,,,/muse/elements/blink
2024-10-15 11:51:29.072,0.1229248396396374,0.2440485339209987,-0.01474775140686105,0.3265973013161582,0.04735782875353264,0.009747710134495205,-0.04032517624317411,0.2268149935614304,0.5713662351456626,0.2006472396093848,0.1065941327856339,0.4750914825708494,0.8589209855468998,0.09290451566819548,0.05481540148625581,0.5205577560269599,0.5701126168153516,-0.05550211420494568,-0.1034432622096604,0.4444559713281641,386.8131868131868,792.5641025641025,791.3553113553114,641.0622710622711,533.0769230769231,0.126587,0.014709,1.006165,4.665527,-7.282410,-4.254303,1,1,1,1,1,30.000000
2024-10-15 11:51:29.827,,,,,,,,,,,,,,,,,,,,,,,,,,,,,,,,,,,,,,/muse/elements/blink
2024-10-15 11:51:30.076,0.04235764766065304,0.05365720112085102,-0.01587223374613935,0.1927818796755203,0.2279151364746503,-0.1673519550447448,-0.1266321851414095,0.4632510463144975,1.17654419664532,0.0449513284983877,0.1204090100309095,0.6650996937662949,0.7524636205752678,0.1074250343122178,0.09350168105337933,0.7100191664427653,0.6505710597320083,0.01365151068296149,0.1246534718701442,0.3926931661266224,478.2783882783883,792.5641025641025,786.5201465201466,680.1465201465202,679.7435897435897,0.138123,0.014465,1.014587,4.246826,-7.559052,-8.366547,1,1,1,1,1,30.000000
2024-10-15 11:51:30.236,,,,,,,,,,,,,,,,,,,,,,,,,,,,,,,,,,,,,,/muse/elements/blink
2024-10-15 11:51:30.450,,,,,,,,,,,,,,,,,,,,,,,,,,,,,,,,,,,,,,/muse/elements/blink
2024-10-15 11:51:31.048,,,,,,,,,,,,,,,,,,,,,,,,,,,,,,,,,,,,,,/muse/elements/blink
2024-10-15 11:51:31.071,0.2721022572467028,0.00339943102590513,-0.005406076655593731,0.4521357604382835,0.560686405904975,-0.1985841983021671,-0.2089412266010626,0.4952443345124117,1.181071432292095,0.2985376650139884,0.3006108996665227,0.9377533598966261,0.7566496464831993,-0.05729669028176426,-0.1339367418837169,0.5713982376065582,0.8298213860999036,-0.2433045365813729,0.1087753395235393,0.550760434113886,612.8571428571429,797.8021978021978,797.3992673992674,721.6483516483516,568.9377289377289,0.128723,0.001526,1.014099,4.261780,-6.676788,-3.678589,1,1,1,1,1,30.000000
2024-10-15 11:51:31.245,,,,,,,,,,,,,,,,,,,,,,,,,,,,,,,,,,,,,,/muse/elements/blink
2024-10-15 11:51:31.733,,,,,,,,,,,,,,,,,,,,,,,,,,,,,,,,,,,,,,/muse/elements/blink
2024-10-15 11:51:32.072,0.3779280196789396,0.08426062878848463,0.1910522206619246,0.7557327778115991,0.5555537753476376,-0.1169577578564157,-0.1373492388052525,0.5757527356029439,1.030396449700322,0.3188702147508012,0.2594842500529665,1.008233849295673,0.7738871706077741,-0.05063043005665145,-0.1119683229558957,0.777630576731954,0.7916003718001897,-0.1563260596471951,0.04874955405067532,0.6457473857129477,764.7619047619048,789.7435897435897,780.8791208791209,778.0586080586081,982.7472527472528,0.128723,-0.000977,1.009277,4.344025,-7.073059,-4.396362,1,1,1,1,1,30.000000
2024-10-15 11:51:33.060,,,,,,,,,,,,,,,,,,,,,,,,,,,,,,,,,,,,,,/muse/elements/blink
2024-10-15 11:51:33.076,0.390615116808347,0.1826231827435259,0.2670184571174647,0.5042707612265547,0.451595227429671,-0.3738570777736987,-0.0504325347553427,0.4058639432804604,0.9332240319247197,0.2279630502492869,0.3629638609082685,0.8037101675148117,0.8151181444531428,0.05088013711483096,-0.1066020195706997,0.713590971354359,0.6365799183640655,-0.01465443648586686,0.03201461620093872,0.6077487192409555,510.1098901098901,795.7875457875458,792.5641025641025,682.967032967033,621.7216117216118,0.135315,-0.000671,1.009827,5.465546,-8.112335,-4.396362,1,1,1,1,1,30.000000
2024-10-15 11:51:33.813,,,,,,,,,,,,,,,,,,,,,,,,,,,,,,,,,,,,,,/muse/elements/blink
2024-10-15 11:51:33.940,,,,,,,,,,,,,,,,,,,,,,,,,,,,,,,,,,,,,,/muse/elements/jaw_clench
2024-10-15 11:51:34.072,0.4541449778296027,0.2237798179947343,0.3789781411008364,0.1184124820614535,0.4337872129919398,-0.1976755232384634,-0.04826360650253834,0.2304328801254528,0.8129381683291766,0.2975812568885897,0.2128017855250277,0.705133793536219,0.8864990314477067,0.03389007920302917,-0.08232132895294249,0.7376627736874642,0.7145375231347588,0.03650289823522065,0.07005874910913491,0.6817478018144465,659.5970695970697,803.040293040293,834.8717948717949,736.5567765567765,684.981684981685,0.125916,0.000610,1.021118,8.374023,-5.944061,5.577698,1,1,1,1,1,30.000000
2024-10-15 11:51:34.180,,,,,,,,,,,,,,,,,,,,,,,,,,,,,,,,,,,,,,/muse/elements/blink
2024-10-15 11:51:34.715,,,,,,,,,,,,,,,,,,,,,,,,,,,,,,,,,,,,,,/muse/elements/blink
2024-10-15 11:51:34.886,,,,,,,,,,,,,,,,,,,,,,,,,,,,,,,,,,,,,,/muse/elements/blink
2024-10-15 11:51:35.072,0.2572226980178581,0.3961577363412201,0.08523057518411804,0.1849940399819178,0.3535426707103371,-0.07409120278891373,-0.09020310735334189,0.3989256727795513,0.75734217657561,0.4432863170027095,-0.07993339630449495,0.7141925780957529,1.085949316483066,0.1956585919762866,-0.07945392769995163,0.9577440773786721,0.8255136722211552,0.1801078670994164,0.121306465004639,0.9366000454266745,827.6190476190476,804.6520146520147,799.4139194139194,812.7106227106227,1070.586080586081,0.123108,0.030457,1.004150,5.188904,-5.271149,-6.130981,1,1,1,1,1,30.000000
2024-10-15 11:51:35.312,,,,,,,,,,,,,,,,,,,,,,,,,,,,,,,,,,,,,,/muse/elements/blink
2024-10-15 11:51:36.061,,,,,,,,,,,,,,,,,,,,,,,,,,,,,,,,,,,,,,/muse/elements/blink
2024-10-15 11:51:36.084,0.2129157036977713,0.3263502610514016,0.1378504332774217,0.4013003539701658,0.331193363899432,-0.1751162308070894,0.2956687936631416,0.3820568004630189,0.4798478406356223,0.4711705355916609,0.2570804993239375,0.4703855220984857,1.035164999452419,0.009824969433213315,0.1366604898703181,0.5925707750511578,0.6349856249590201,-0.1007636174897771,0.01585656999496012,0.5796307912108226,979.5238095238095,844.1391941391942,792.5641025641025,806.6666666666667,736.1538461538462,0.086365,0.039551,1.018555,3.506622,-7.693634,-4.867401,1,1,1,1,1,30.000000
2024-10-15 11:51:36.513,,,,,,,,,,,,,,,,,,,,,,,,,,,,,,,,,,,,,,/muse/elements/blink
2024-10-15 11:51:36.715,,,,,,,,,,,,,,,,,,,,,,,,,,,,,,,,,,,,,,/muse/elements/blink
2024-10-15 11:51:37.078,1.12324089403059,1.08331117436294,0.6385216481214178,1.019380108308135,1.245082797722413,0.8402792663428449,0.6348720957599882,1.181657711165553,1.257692695240627,0.5566067036758314,0.5183830088024795,1.244355767306155,0.9436411716686461,0.07419030061304367,0.2345806196585924,0.6883502408630935,0.7453448506023013,-0.1257897695777747,0.0418745075461713,0.6639762275415039,732.9304029304029,796.996336996337,820.7692307692308,766.7765567765568,786.1172161172161,0.110779,0.017517,1.011902,4.560852,-7.357178,-4.246826,1,1,1,1,1,30.000000
2024-10-15 11:51:37.143,,,,,,,,,,,,,,,,,,,,,,,,,,,,,,,,,,,,,,/muse/elements/blink
2024-10-15 11:51:37.312,,,,,,,,,,,,,,,,,,,,,,,,,,,,,,,,,,,,,,/muse/elements/blink
2024-10-15 11:51:37.567,,,,,,,,,,,,,,,,,,,,,,,,,,,,,,,,,,,,,,/muse/elements/blink
2024-10-15 11:51:37.738,,,,,,,,,,,,,,,,,,,,,,,,,,,,,,,,,,,,,,/muse/elements/blink
2024-10-15 11:51:38.072,1.338280322456047,1.322076562246143,0.9872589915526314,1.264869322232922,1.39818437491459,1.026394832467031,0.7956674674572339,1.446928581158789,1.257692695240627,0.5523999167290871,0.4898686462408222,1.244355767306155,0.9779442024642848,0.126480214267155,0.1528319300721552,0.8273775494904865,0.6273956076413073,-0.04126861351013237,0.1040271127447502,0.6996576538739177,906.996336996337,782.0879120879121,784.9084249084249,834.4688644688645,1033.113553113553,0.101135,0.025391,1.019287,4.239349,-6.878662,-3.028107,1,1,1,1,1,30.000000
2024-10-15 11:51:38.077,,,,,,,,,,,,,,,,,,,,,,,,,,,,,,,,,,,,,,/muse/elements/blink
2024-10-15 11:51:38.547,,,,,,,,,,,,,,,,,,,,,,,,,,,,,,,,,,,,,,/muse/elements/blink
2024-10-15 11:51:38.888,,,,,,,,,,,,,,,,,,,,,,,,,,,,,,,,,,,,,,/muse/elements/blink
2024-10-15 11:51:39.075,1.338280322456047,1.146218481695587,0.7772783369123916,0.7117899178449603,1.39818437491459,0.573428506484627,0.01996427593333841,0.6149948704772457,1.257692695240627,0.4927403322612762,0.5836057793526181,0.8314528280587674,0.9779442024642848,0.0701981580410443,-0.09923292664409576,0.624750802022851,0.6273956076413073,-0.1233293712709872,0.05959745654141076,0.4417708924593427,633.8095238095239,798.2051282051282,794.5787545787546,724.0659340659341,690.2197802197802,0.096130,0.026428,1.014038,4.770203,-6.482391,-3.618774,1,1,1,1,1,30.000000
2024-10-15 11:51:39.144,,,,,,,,,,,,,,,,,,,,,,,,,,,,,,,,,,,,,,/muse/elements/blink
2024-10-15 11:51:39.484,,,,,,,,,,,,,,,,,,,,,,,,,,,,,,,,,,,,,,/muse/elements/blink
2024-10-15 11:51:39.936,,,,,,,,,,,,,,,,,,,,,,,,,,,,,,,,,,,,,,/muse/elements/blink
2024-10-15 11:51:40.072,1.338280322456047,1.151128392951301,0.3091911713891696,0.7797443480488209,1.39818437491459,0.8550079538417087,0.2006395280343589,0.6198556020144109,1.257692695240627,0.4809500850615049,0.6264319976264532,0.753939801990484,0.9779442024642848,0.03244844138945215,-0.007706811243480925,0.6699656779954692,0.6273956076413073,-0.08547740384445317,0.07230802367263899,0.4946521803875376,810.2930402930403,793.3699633699634,793.3699633699634,792.5641025641025,793.3699633699634,0.098145,0.032043,1.015564,4.755249,-7.282410,-3.843079,1,1,1,1,1,30.000000
2024-10-15 11:51:40.086,,,,,,,,,,,,,,,,,,,,,,,,,,,,,,,,,,,,,,/muse/elements/blink
2024-10-15 11:51:40.598,,,,,,,,,,,,,,,,,,,,,,,,,,,,,,,,,,,,,,/muse/elements/blink
2024-10-15 11:51:41.077,0.9015300291718624,0.07013952983874111,-0.1034742743676119,0.7797443480488209,1.072662467769812,-0.1763237500758827,0.06262209893488524,0.6198556020144109,1.173266885035392,0.285971017223073,0.3185264394015201,0.753939801990484,1.237511066057791,0.02900464519571266,0.0538016238466304,0.6699656779954692,0.9675580953688084,-0.1002843410417079,0.1508587768808552,0.4946521803875376,559.2673992673992,787.7289377289378,789.3406593406594,700.2930402930403,621.7216117216118,0.100403,0.028931,1.017334,4.022522,-7.387085,-5.532837,1,1,1,1,1,30.000000
2024-10-15 11:51:41.218,,,,,,,,,,,,,,,,,,,,,,,,,,,,,,,,,,,,,,/muse/elements/blink
2024-10-15 11:51:41.429,,,,,,,,,,,,,,,,,,,,,,,,,,,,,,,,,,,,,,/muse/elements/blink
2024-10-15 11:51:41.587,,,,,,,,,,,,,,,,,,,,,,,,,,,,,,,,,,,,,,/muse/elements/blink
2024-10-15 11:51:41.907,,,,,,,,,,,,,,,,,,,,,,,,,,,,,,,,,,,,,,/muse/elements/blink
2024-10-15 11:51:42.075,0.9683064947362726,0.3555265561452693,0.2127534151846193,0.9021717771905723,0.9877436859144328,0.3511706776746316,0.09739301284098603,0.8922877244740243,1.257586914275114,0.4585071222801558,0.4023745823596633,1.056255021400191,1.146868123586393,0.07601378877273607,-0.0290972366808539,0.9314536129927197,0.8698907261257043,-0.1576004597787538,0.1160150102503349,0.6163588992980049,720.4395604395604,796.996336996337,792.5641025641025,752.6739926739926,823.1868131868132,0.099060,0.019287,1.015503,5.226288,-6.497345,-4.314117,1,1,1,1,1,30.000000
2024-10-15 11:51:42.184,,,,,,,,,,,,,,,,,,,,,,,,,,,,,,,,,,,,,,/muse/elements/blink
2024-10-15 11:51:42.930,,,,,,,,,,,,,,,,,,,,,,,,,,,,,,,,,,,,,,/muse/elements/blink
2024-10-15 11:51:43.082,1.030078471787421,0.6105393551545945,0.8783788776696747,-0.1795725576738381,0.8729609899361622,0.5214075176626169,0.6846048959461233,0.4613705582961142,1.122630908201904,0.4515447731780129,0.5454305638294258,0.8323894622833121,0.993692358279795,0.04326078635254899,-0.09507787762947242,0.6753534730848842,0.6996995978990999,-0.08441559119143476,0.04593855156514734,0.4860841468318673,927.1428571428572,801.8315018315019,799.4139194139194,836.0805860805862,1000.07326007326,0.093323,0.028870,1.015442,4.994507,-7.596436,-3.970184,1,1,1,1,1,30.000000
2024-10-15 11:51:43.146,,,,,,,,,,,,,,,,,,,,,,,,,,,,,,,,,,,,,,/muse/elements/blink
2024-10-15 11:51:43.317,,,,,,,,,,,,,,,,,,,,,,,,,,,,,,,,,,,,,,/muse/elements/blink
2024-10-15 11:51:43.916,,,,,,,,,,,,,,,,,,,,,,,,,,,,,,,,,,,,,,/muse/elements/blink
2024-10-15 11:51:44.080,0.1407037108657614,0.2193349126098249,0.3456829286118346,-0.1305326628417259,0.2647967260164749,0.12578858836641,0.326058545648683,0.4754970984304691,0.8144995299077958,0.2639798524819081,0.5067285677962979,0.852435563871567,0.6640844504093701,-0.04207752794319627,-0.06597447443432691,0.5380545794061652,0.6089486483703896,0.05607305347424883,0.04412050030558703,0.4781302070870088,666.0439560439561,790.1465201465202,794.5787545787546,763.956043956044,516.1538461538462,0.109436,0.024292,1.018921,4.620667,-6.953430,-5.016937,1,1,1,1,1,35.000000
2024-10-15 11:51:44.154,,,,,,,,,,,,,,,,,,,,,,,,,,,,,,,,,,,,,,/muse/elements/blink
2024-10-15 11:51:44.345,,,,,,,,,,,,,,,,,,,,,,,,,,,,,,,,,,,,,,/muse/elements/blink
2024-10-15 11:51:45.072,0.2962102365158841,0.2262607267808146,-0.1489971201348798,-0.004038650365210706,-0.2687039540690256,0.1354194251434658,-0.2754049239905483,0.405418888577381,0.3204137604847777,0.245093728281769,0.198630869425495,0.2502153706493703,0.4994842898434037,-0.07428466672509521,0.00458709335157064,0.3528799009547723,0.5168972499574288,-0.03081178964707851,0.1132889288072925,0.4285305397025373,1234.175824175824,795.3846153846154,796.1904761904763,941.6483516483516,738.1684981684982,0.102356,0.021545,1.013367,4.889832,-6.340332,-4.508514,1,1,1,1,1,35.000000
2024-10-15 11:51:46.082,0.7194633805820287,0.05861373284969423,0.04293607421027792,0.5798749379818506,0.5312883775137629,0.03629560371788793,-0.2046667446943573,0.05298708920760324,0.9655907285312528,0.5128070077559437,0.3834113946982237,0.9222484200736363,0.950342144383673,-0.02161778393572793,-0.07302228840741425,0.5906986983800591,0.6143119078646675,-7.411628841028221e-05,0.03157579662983002,0.3956913493464196,1017.802197802198,797.8021978021978,803.8461538461539,883.6263736263736,920.2930402930403,0.108093,0.020081,1.015442,4.687958,-7.678680,-4.082336,1,1,1,1,1,35.000000
2024-10-15 11:51:46.083,,,,,,,,,,,,,,,,,,,,,,,,,,,,,,,,,,,,,,/muse/elements/blink
2024-10-15 11:51:46.254,,,,,,,,,,,,,,,,,,,,,,,,,,,,,,,,,,,,,,/muse/elements/blink
2024-10-15 11:51:47.002,,,,,,,,,,,,,,,,,,,,,,,,,,,,,,,,,,,,,,/muse/elements/blink
2024-10-15 11:51:47.079,0.8695013304730353,0.2962424900697918,0.5605650920819156,0.883140944975878,0.960393822869454,0.3353129945144137,0.4509258639555915,0.773979302165186,1.115160596551707,0.5347704229246403,0.5747518543692388,0.7952155374726545,1.033802437299699,0.02167023010314236,0.1242608135058575,0.6678599730647805,0.7150296852522841,-0.1634860363957581,0.03718109873627314,0.4358070882385026,734.1391941391942,794.5787545787546,799.8168498168499,774.4322344322345,675.3113553113553,0.109070,0.014587,1.018311,4.867401,-6.841278,-4.486084,1,1,1,1,1,35.000000
2024-10-15 11:51:47.213,,,,,,,,,,,,,,,,,,,,,,,,,,,,,,,,,,,,,,/muse/elements/blink
2024-10-15 11:51:47.433,,,,,,,,,,,,,,,,,,,,,,,,,,,,,,,,,,,,,,/muse/elements/blink
2024-10-15 11:51:47.669,,,,,,,,,,,,,,,,,,,,,,,,,,,,,,,,,,,,,,/muse/elements/blink
2024-10-15 11:51:48.072,0.8928151015247784,0.5310403858973068,0.4562353110375131,0.9580949166917645,1.062046109891779,0.5050355293148068,0.4726611832825612,0.9140800935196212,1.068917529112353,0.338213959226398,0.5835583035631576,0.7245336908190291,1.000415534205664,0.04047010044401032,0.03329595419451995,0.686907001446619,0.73951489260704,-0.1254774045927655,0.0854298301479023,0.4165860180578816,1238.608058608059,802.2344322344322,804.6520146520147,955.7509157509157,758.7179487179487,0.101990,0.012268,1.011597,4.844971,-6.990814,-3.895416,1,1,1,1,1,35.000000
2024-10-15 11:51:48.419,,,,,,,,,,,,,,,,,,,,,,,,,,,,,,,,,,,,,,/muse/elements/blink
2024-10-15 11:51:48.548,,,,,,,,,,,,,,,,,,,,,,,,,,,,,,,,,,,,,,/muse/elements/jaw_clench
2024-10-15 11:51:48.719,,,,,,,,,,,,,,,,,,,,,,,,,,,,,,,,,,,,,,/muse/elements/jaw_clench
2024-10-15 11:51:49.076,0.8928151015247784,0.1756849909584872,0.1055192740515252,0.3705385241608894,1.062046109891779,0.003733568904889606,-0.1417161578484465,0.4162637785324612,1.068917529112353,0.3396359459703576,0.3772356851017228,0.3040886680248922,1.000415534205664,0.204155034173758,-0.03126214636908187,0.4828610239139195,0.73951489260704,-0.06875389360215456,-0.01403544877164625,0.1821576840035528,1245.054945054945,807.4725274725275,811.0989010989011,946.0805860805862,932.3809523809524,0.096741,0.018433,1.024475,4.628143,-7.843170,-4.762726,1,1,1,1,1,35.000000
2024-10-15 11:51:49.745,,,,,,,,,,,,,,,,,,,,,,,,,,,,,,,,,,,,,,/muse/elements/blink
2024-10-15 11:51:50.080,0.8928151015247784,0.1788786318703996,0.4432054690085368,1.099098946559776,1.062046109891779,0.1375528844619588,0.05774333463723048,0.8973439331037992,1.068917529112353,0.3879905028002118,0.3322293676412639,0.9411449932145061,1.000415534205664,0.1308999933237659,0.07511551593749534,0.7918217271115979,0.73951489260704,-0.155489080592311,0.04598497953831802,0.3038245116089237,1153.589743589744,812.7106227106227,811.0989010989011,928.7545787545788,810.6959706959707,0.096008,0.014465,1.016174,5.009460,-6.781464,-4.471130,1,1,1,1,1,35.000000
2024-10-15 11:51:50.471,,,,,,,,,,,,,,,,,,,,,,,,,,,,,,,,,,,,,,/muse/elements/blink
2024-10-15 11:51:51.085,0.7703566709957096,0.3083662972826476,0.1655525207103086,0.7525657820308872,0.6855909762778211,0.05044589691192395,0.01377712252572586,0.5984137938757623,0.5242261942024119,0.3472151075096721,0.3341255343384111,0.9142639720838952,0.6898535204900051,-0.07018252504052902,-0.01331584474743997,0.6647181922863065,0.6512349457042491,-0.05958779311906705,0.01221126578470693,0.4474511028281967,1230.952380952381,801.4285714285714,805.8608058608058,959.7802197802198,960.989010989011,0.114929,0.009094,1.010315,5.630035,-6.990814,-4.501038,1,1,1,1,1,35.000000
2024-10-15 11:51:51.672,,,,,,,,,,,,,,,,,,,,,,,,,,,,,,,,,,,,,,/muse/elements/blink
2024-10-15 11:51:51.844,,,,,,,,,,,,,,,,,,,,,,,,,,,,,,,,,,,,,,/muse/elements/blink
2024-10-15 11:51:52.076,0.6928815595379347,0.1703592685401466,-0.1721164445839949,0.414272353419005,0.8533281562873797,0.1414655377557411,-0.09969468354819583,0.38135462756587,0.8688695160837413,0.2430325227390888,0.3966519581205764,0.6681050385361121,0.9260595047003523,-0.05520010516325607,-0.02701173828004831,0.6210902553315256,0.7612224067912159,0.01817481191441531,-0.01233743325915959,0.3956231742302586,1220.476190476191,806.6666666666667,802.2344322344322,942.0512820512821,836.4835164835165,0.103333,0.009033,1.010498,4.635620,-7.125397,-4.381409,1,1,1,1,1,35.000000
2024-10-15 11:51:53.074,0.556548370367945,0.1375310924857818,-0.06053380661920994,0.2005705167719697,0.906948496235449,0.2943300367808458,-0.1070173716307955,0.3342980698060024,0.9851568272140313,0.5081450808700333,0.5121086267332678,0.7401383373518866,0.8541141026437289,0.0127697392917251,-0.0774544561195822,0.5927745852953058,0.7850869674914782,-0.133143644554205,0.0009467817511489471,0.3994402971816862,1140.695970695971,804.6520146520147,791.3553113553114,928.7545787545788,1250.695970695971,0.113892,0.007690,1.011658,5.383301,-6.661835,-2.691650,1,1,1,1,1,35.000000
2024-10-15 11:51:53.601,,,,,,,,,,,,,,,,,,,,,,,,,,,,,,,,,,,,,,/muse/elements/blink
2024-10-15 11:51:54.072,0.3483391428587143,0.111610629437908,0.1997464989363301,0.2059746606229863,0.784680200908535,0.3076160588961382,0.12901366789414,0.6622909161538046,0.9379498965873283,0.3122195876401487,0.4594007809461252,0.9666817130762463,0.7286021784468422,-0.06603708864099664,0.07418934992229438,0.6173984098425847,0.6418247938152665,-0.08934361806411208,0.08752413408402704,0.5192358244993956,1217.252747252747,798.6080586080586,805.4578754578755,958.974358974359,847.7655677655678,0.113647,0.010803,1.020447,4.074860,-6.646881,-3.671112,1,1,1,1,1,35.000000
2024-10-15 11:51:54.553,,,,,,,,,,,,,,,,,,,,,,,,,,,,,,,,,,,,,,/muse/elements/blink
2024-10-15 11:51:54.894,,,,,,,,,,,,,,,,,,,,,,,,,,,,,,,,,,,,,,/muse/elements/blink
2024-10-15 11:51:55.072,0.3766674681854884,0.09377882459923818,-0.0228957533598309,0.2851285540900071,0.2383494295020693,0.03907929233890249,0.1154563549177095,0.4016953957673525,0.7902546512276267,0.2391943984838838,0.3128499576658414,0.7971192542392215,0.7503907880721944,-0.2236687635768756,0.1395076780383769,0.7495679559669072,0.6588980484072084,-0.001244317794644165,0.1227196838456921,0.4118224931131087,1219.267399267399,805.0549450549451,811.5018315018315,958.5714285714286,681.7582417582418,0.093506,0.002014,1.010620,5.375824,-6.826324,-7.028198,1,1,1,1,1,30.000000
2024-10-15 11:51:55.598,,,,,,,,,,,,,,,,,,,,,,,,,,,,,,,,,,,,,,/muse/elements/blink
2024-10-15 11:51:56.078,0.4586347478931018,0.1974914519723933,-0.119275947333922,0.4382735755950892,0.3857013517120281,-0.05710553679411678,0.2710052729239366,0.1293815998742881,0.8155683530760284,0.2852514114344286,0.3128499576658414,0.8484562674469859,0.7718495673624329,-0.02947548178472963,0.1469733951709673,0.6056879612348426,0.6167310256049947,-0.1803180832468857,0.112004043151672,0.4191096837912774,1186.630036630037,799.0109890109891,808.2783882783883,936.007326007326,671.6849816849817,0.125732,0.011414,1.014343,2.938385,-7.416992,-4.246826,1,1,1,1,1,30.000000
2024-10-15 11:51:57.076,0.309938196187665,0.2104525537733659,0.280937777048794,0.3257057793485109,0.5041479024116374,-0.2240130490393487,-0.05079471156715533,0.3129792092442904,0.8867464522936359,-0.0188349663605503,0.2838405503213784,1.08327739125837,0.7714745880685302,-0.003671048463380455,-0.05139164240956772,0.6072609019202215,0.5111899285255861,-0.0843195931756571,0.007161292199445819,0.396997541428019,1233.369963369963,807.4725274725275,798.2051282051282,942.0512820512821,933.992673992674,0.116211,0.028625,1.014404,3.835602,-7.932892,-6.041260,1,1,1,1,1,30.000000
2024-10-15 11:51:57.336,,,,,,,,,,,,,,,,,,,,,,,,,,,,,,,,,,,,,,/muse/elements/blink
2024-10-15 11:51:57.744,,,,,,,,,,,,,,,,,,,,,,,,,,,,,,,,,,,,,,/muse/elements/blink
2024-10-15 11:51:58.075,0.4231848225706771,0.08475574515275204,0.1943012822464178,0.4168971713891651,0.6108014616722321,-0.3506292660363567,-0.01150843085857909,0.6911569861908097,0.9250046363343407,-0.1503809060259164,0.2838405503213784,1.086435056101308,0.8869785552073483,-0.03360543291828819,-0.01808643761387058,0.5415649719547276,0.689519569578419,-0.08594577667008221,-0.01964624619761303,0.4334006636571608,1200.732600732601,802.6373626373627,811.9047619047619,960.989010989011,1046.813186813187,0.115051,0.001282,1.015686,0.912170,-6.833801,-7.977753,1,1,1,1,1,30.000000
2024-10-15 11:51:58.169,,,,,,,,,,,,,,,,,,,,,,,,,,,,,,,,,,,,,,/muse/elements/blink
2024-10-15 11:51:58.647,,,,,,,,,,,,,,,,,,,,,,,,,,,,,,,,,,,,,,/muse/elements/blink
2024-10-15 11:51:59.072,0.5380076538009192,0.5488904425830099,0.1943012822464178,0.4580938322103397,0.5413888617007926,0.3067174773869216,-0.01150843085857909,0.4814337232336376,0.7922219377768782,0.4077287954109499,0.2838405503213784,0.3755177908834638,0.8920351835328258,0.01279992298839669,-0.01808643761387058,0.4603234505807474,0.7044008432340364,-0.1606100661396244,-0.01964624619761303,0.3319357246507942,1135.860805860806,792.1611721611722,805.4578754578755,975.4945054945056,1100.805860805861,0.143250,-0.028992,1.009216,6.489868,-8.374023,-3.125305,1,1,1,1,1,30.000000
2024-10-15 11:51:59.072,,,,,,,,,,,,,,,,,,,,,,,,,,,,,,,,,,,,,,/muse/elements/blink
2024-10-15 11:52:00.075,0.5319571633666154,0.7451536534747291,0.1943012822464178,0.4185283061803621,0.3123909019298557,0.9221742571347206,-0.01150843085857909,0.4220535927290399,0.390007260095522,0.687689871011976,0.2838405503213784,0.007184043105045571,0.6378692976892623,0.004590509782066578,-0.01808643761387058,0.3561429332882671,0.5339384677655857,-0.01667719377584624,-0.01964624619761303,0.2594109697102264,1233.369963369963,808.6813186813187,826.4102564102565,974.6886446886447,1065.750915750916,0.138062,-0.018677,1.005432,5.674896,-7.551575,-4.291687,1,1,1,1,1,30.000000
2024-10-15 11:52:00.716,,,,,,,,,,,,,,,,,,,,,,,,,,,,,,,,,,,,,,/muse/elements/blink
2024-10-15 11:52:00.932,,,,,,,,,,,,,,,,,,,,,,,,,,,,,,,,,,,,,,/muse/elements/blink
2024-10-15 11:52:01.081,0.5319571633666154,0.658182779694433,0.6451014707432977,0.4185283061803621,0.3123909019298557,0.3809894208278785,0.1309857385416015,0.4220535927290399,0.390007260095522,0.5976802914123308,0.2745219505828629,0.007184043105045571,0.6378692976892623,0.03156631643097024,0.1449307830256412,0.3561429332882671,0.5339384677655857,-0.1537930880971514,-0.003718902778785804,0.2594109697102264,1270.03663003663,818.3516483516484,767.1794871794872,1032.710622710623,1122.564102564103,0.076660,0.014038,1.018311,8.740387,-0.022430,-6.504822,1,1,1,1,1,30.000000
2024-10-15 11:52:01.082,,,,,,,,,,,,,,,,,,,,,,,,,,,,,,,,,,,,,,/muse/elements/blink
2024-10-15 11:52:01.403,,,,,,,,,,,,,,,,,,,,,,,,,,,,,,,,,,,,,,/muse/elements/blink
2024-10-15 11:52:02.077,0.5319571633666154,0.9982622811019608,0.8763831909406273,0.4185283061803621,0.3123909019298557,0.4202486613622295,0.3136890558398445,0.4220535927290399,0.390007260095522,0.3089594926854805,0.2745219505828629,0.007184043105045571,0.6378692976892623,0.0803870449189084,0.0449545846862735,0.3561429332882671,0.5339384677655857,-0.2401047540392393,0.04843380386743,0.2594109697102264,1180.18315018315,798.6080586080586,805.0549450549451,934.3956043956044,797.3992673992674,0.043701,0.031982,1.017273,3.745880,-7.409515,-5.540314,1,2,1,1,2,30.000000
2024-10-15 11:52:02.129,,,,,,,,,,,,,,,,,,,,,,,,,,,,,,,,,,,,,,/muse/elements/blink
2024-10-15 11:52:03.077,0.3225027392650718,0.3626758139208667,0.5944229758210879,0.1848555637798553,0.08723710940739171,0.2075041565643137,0.05426653242747843,0.3100269616869785,0.426293551723028,0.3743825574762664,0.3405754236767379,0.7013626654180382,0.8131361410239245,-0.05686875914484652,0.09189493012259252,0.6342233045818977,0.3369498534599699,-0.03995634737304733,0.09079830457135368,0.3640831059647606,1189.047619047619,798.2051282051282,810.6959706959707,946.4835164835165,970.2564102564103,0.046387,0.025635,1.019104,4.740295,-7.102966,-4.358978,1,1,1,1,1,30.000000
2024-10-15 11:52:03.429,,,,,,,,,,,,,,,,,,,,,,,,,,,,,,,,,,,,,,/muse/elements/blink
